sample,FP1,FP2,T7,T8,P7,P8,O1,Oz,O2
0,63.50171,-96.70947,139.00977,-29.324219,79.591064,66.95654,33.409077,-21.784729,17.368652
1,64.02197,-97.47705,152.52441,-14.298828,88.31348,78.6958,51.865475,-8.025055,31.951904
2,54.026855,-111.72876,141.78027,-23.950195,75.53711,67.743164,16.21222,-30.981506,3.902588
3,47.914307,-116.27954,137.60742,-39.09375,72.98645,65.81836,0.7895622,-40.428802,-8.700439
4,51.91089,-109.115234,143.71582,-35.871094,82.43298,67.69385,26.03556,-18.37439,14.671143
5,55.071045,-99.62451,139.7041,-24.948242,74.18054,61.43701,38.956715,-15.632233,21.692139
6,55.77417,-99.80737,133.36035,-18.58789,68.68738,62.285645,29.691952,-25.663208,14.331055
7,62.378906,-101.33325,143.00098,-22.047852,79.86621,70.458984,7.210991,-35.086334,-1.7446289
8,48.321045,-113.206055,135.15039,-39.421875,71.73938,57.987793,-5.6508007,-46.310974,-17.892578
9,46.50708,-109.08716,142.38379,-38.018555,78.03943,55.48584,22.035366,-33.76013,2.4365234
10,45.720215,-107.19556,143.83691,-33.003906,77.482544,50.39453,32.750515,-31.925385,8.448975
11,42.74292,-115.02466,134.63281,-28.652344,70.35205,58.458984,9.746113,-42.640594,-6.88208
12,60.95337,-100.09839,136.625,-26.609375,73.487915,69.17139,-7.7922764,-49.109955,-14.259766
13,46.17505,-108.76196,135.8418,-40.76172,71.50928,56.0708,-2.695469,-50.146423,-14.748535
14,52.41211,-98.75195,145.86133,-33.348633,82.505005,55.33252,36.61569,-27.197449,10.8671875
15,53.584473,-106.22241,146.00488,-24.701172,82.72168,58.06494,35.70532,-29.16745,11.052246
16,49.095947,-112.17139,141.7539,-30.807617,77.01526,61.36035,0.5268593,-45.3273,-11.189209
17,53.144775,-100.05762,130.42871,-34.65918,71.68176,61.01172,-11.631964,-50.799103,-15.921387
18,64.59424,-85.33765,134.21191,-27.757812,74.81018,57.683594,18.56945,-29.438171,6.880127
19,56.456543,-91.048584,131.74121,-24.682617,68.434326,53.158203,29.930874,-28.325256,14.710449
20,65.53125,-88.71875,143.40332,-16.151367,75.94629,62.490234,16.316288,-34.43103,3.6137695
21,64.36206,-91.30664,145.44922,-26.323242,85.721924,72.74463,-0.1373291,-37.148926,-4.645996
22,51.644287,-98.34668,136.28809,-43.625977,85.527954,55.42871,1.521286,-40.88513,-6.592041
23,56.897217,-92.149414,141.6582,-32.640625,90.1416,49.118652,34.00281,-24.443726,10.677734
24,67.117676,-86.84595,140.87012,-15.449219,84.250244,57.501953,39.045216,-20.926544,15.017334
25,63.664062,-94.52319,131.4414,-24.424805,69.82861,56.91504,-2.7578812,-46.992126,-9.671387
26,61.67041,-98.930176,136.3711,-36.64258,70.87305,52.0459,-23.212427,-61.632812,-28.560791
27,56.08545,-101.36084,140.33398,-49.20117,83.27051,46.169434,10.022175,-41.235504,-2.1791992
28,63.577637,-92.66455,145.11133,-27.134766,90.04004,56.859863,40.50561,-15.80545,23.705566
29,71.68555,-88.596924,145.98242,-10.245117,83.749146,63.913086,23.190575,-30.197601,8.091797
30,80.473145,-78.65747,136.84473,-10.071289,74.632935,66.38916,-10.846752,-49.812805,-21.466797
31,59.53882,-94.6062,129.36035,-29.186523,73.61267,63.612305,-12.155132,-48.548187,-13.205566
32,55.80713,-94.961426,143.93066,-24.851562,90.541504,60.695312,27.453129,-21.583954,14.859863
33,67.771484,-86.45654,143.45117,-10.951172,84.11511,60.286133,25.086353,-28.967773,11.303223
34,71.11987,-91.94531,142.75293,-14.821289,81.358154,58.66992,0.88401794,-42.60559,-8.168457
35,62.66211,-100.15527,129.65234,-35.20996,75.60303,55.27832,-19.196218,-54.019043,-23.551025
36,80.519775,-76.00806,144.42383,-19.629883,95.44922,64.194336,12.149258,-29.851776,2.7338867
37,64.93823,-89.86694,138.58984,-24.78418,88.086914,47.100098,27.13578,-32.49231,8.466797
38,71.829346,-91.417725,151.98242,-14.832031,98.381226,59.409668,29.021397,-27.904388,8.566162
39,74.0249,-91.04321,144.3789,-30.03125,86.49292,53.143555,-12.342295,-53.662537,-21.04004
40,68.04541,-97.33057,140.01074,-41.913086,84.09094,47.01123,-19.384563,-57.763153,-23.04004
41,70.648926,-86.53784,145.36719,-28.952148,99.776855,61.54492,29.58324,-20.78067,11.69458
42,74.951416,-86.34546,148.5293,-21.555664,95.1322,57.18164,33.258404,-23.748566,15.952393
43,72.19043,-89.28882,154.6582,-12.556641,100.770874,64.458496,19.918125,-31.626587,2.4658203
44,73.332275,-84.353516,152.9375,-21.08496,101.45398,68.654785,-2.5648537,-37.455994,-7.7963867
45,68.96387,-79.77588,154.76074,-33.089844,111.59961,58.78418,23.516937,-23.160126,8.530762
46,73.03467,-72.52344,160.65527,-20.893555,117.75464,54.00293,50.940556,-13.687744,22.889893
47,74.99463,-69.71338,160.05273,3.5273438,114.67456,71.17334,46.0723,-14.02594,23.302246
48,75.253174,-70.916504,140.85742,-2.8544922,89.631714,71.66846,-1.0455437,-41.70691,-9.623779
49,73.41577,-71.72778,146.08984,-9.53125,102.36951,73.58545,5.9508095,-29.616058,0.7121582
50,72.23657,-68.79956,154.27539,-3.6230469,112.75171,76.81445,38.12476,-8.735901,28.59961
51,65.20459,-74.24072,149.31836,-2.65625,107.646484,62.972168,55.615383,-6.0294495,32.745117
52,71.54126,-80.12109,145.47363,-5.40625,98.164795,64.73926,24.306011,-31.439545,8.158691
53,78.28906,-72.631836,138.68652,-9.253906,91.182495,68.49951,-6.424677,-50.930573,-12.464111
54,69.88403,-74.94751,121.83496,-21.679688,75.37988,52.92041,-14.987511,-57.813477,-15.73877
55,84.69922,-60.70117,144.34863,3.180664,95.86511,68.947266,33.49262,-24.311737,20.919922
56,72.68408,-73.11377,148.38379,-2.3759766,95.26831,56.66162,28.88618,-32.00766,8.369141
57,75.001465,-81.38745,145.72461,-4.2714844,92.12891,63.094727,2.9025955,-39.562714,-5.717041
58,72.27002,-86.29028,144.56055,-22.90918,97.70044,62.925293,-9.785353,-43.332947,-12.843018
59,80.6958,-69.09863,153.82422,-13.990234,112.51636,65.12891,28.338135,-20.172302,12.448975
60,75.06079,-75.944824,148.68945,-11.192383,105.30676,54.32617,42.57571,-11.848755,25.609863
61,91.77295,-63.382812,146.06738,4.0351562,99.73926,65.367676,27.131474,-19.650818,15.482178
62,87.757324,-70.29419,141.56543,-13.8515625,87.863525,50.226562,-10.05154,-46.887238,-22.692139
63,85.65503,-66.81714,147.16602,-18.17871,100.368286,56.59668,-2.107872,-38.84024,-9.744629
64,92.621826,-54.804688,163.1582,-1.9052734,120.14905,61.57959,43.064304,-8.478516,20.757324
65,87.69556,-64.6543,161.25586,-6.2109375,110.391846,49.621582,41.994877,-17.234558,16.320312
66,89.66211,-63.331787,156.24707,-6.2246094,103.83154,55.575195,10.500343,-31.622162,-2.7231445
67,91.017334,-64.694824,144.32617,-13.720703,99.54785,61.18457,-8.232,-37.085358,-11.749512
68,92.07666,-61.12207,145.59375,-16.580078,98.19678,51.53662,3.9973755,-33.556793,-4.4311523
69,88.259766,-63.29297,158.25488,-5.3632812,114.14221,57.53662,43.614437,-10.170227,22.27246
70,84.187744,-72.13916,158.69434,-1.2324219,114.54028,56.43701,31.53696,-18.404755,8.101318
71,91.02026,-72.809814,152.99121,-8.0625,104.17993,60.118164,-0.72253036,-36.53476,-11.121582
72,85.42334,-75.07593,151.6416,-13.395508,106.24414,60.577637,-4.5414143,-36.087555,-11.239258
73,89.3208,-67.86035,155.52441,-8.426758,111.669556,58.14746,27.139168,-20.509216,12.476807
74,106.45264,-49.013428,156.85547,11.744141,107.69348,65.66992,36.61999,-12.360107,21.722412
75,92.40332,-70.504395,146.79004,-0.50878906,96.91113,55.871582,3.2632332,-39.397278,-9.314697
76,85.83984,-76.99902,144.84277,-11.90918,103.23779,57.838867,-14.992647,-47.17331,-21.372314
77,81.677246,-74.05786,151.33789,-13.90918,119.689575,64.930664,14.236687,-23.375305,9.476807
78,76.94702,-76.30347,148.08301,-12.043945,107.71155,44.573242,28.024624,-24.063477,11.88208
79,94.5603,-67.45679,157.84668,6.555664,113.90503,59.141113,30.770573,-18.637573,12.875244
80,90.22363,-71.36743,133.38672,-3.4609375,84.7345,50.730957,-21.05476,-55.74002,-23.77417
81,88.79126,-73.84863,131.51953,-13.674805,82.36792,44.80713,-38.013214,-67.16962,-32.340088
82,81.069824,-73.12109,140.69336,-14.2421875,103.63684,45.013184,10.178585,-33.42453,2.6096191
83,74.5625,-86.37573,146.40625,-7.9658203,108.44678,44.083008,32.192043,-20.068237,10.30542
84,83.951904,-80.86182,149.75977,1.1113281,102.987915,53.251465,8.613781,-33.370453,-7.1694336
85,85.26318,-80.302,146.91113,-6.1992188,98.24878,55.097168,-23.055458,-55.390625,-27.15918
86,78.07178,-81.54468,136.07617,-12.012695,93.81531,49.06836,-24.007133,-59.03479,-24.861084
87,77.180176,-74.23535,140.34375,-5.4179688,102.390625,47.929688,15.016193,-33.574432,5.4882812
88,77.214355,-81.340576,142.79688,4.0859375,106.04199,51.867676,23.582153,-31.682861,3.5456543
89,69.84424,-94.4104,133.4248,-2.0859375,90.70337,50.74951,-18.459488,-50.592804,-21.214111
90,74.83667,-85.59155,133.75,-5.8916016,97.92969,57.57422,-25.747288,-55.68518,-24.776367
91,72.8811,-81.35498,137.56055,-13.15332,100.92786,47.85205,-7.056959,-43.443726,-9.910645
92,82.417725,-78.522705,146.53809,0.13574219,105.51526,51.864746,26.253841,-23.004517,15.232422
93,87.16382,-79.52954,148.80566,6.745117,104.83972,59.38623,19.027332,-23.774536,9.516357
94,86.8728,-85.87012,143.89941,0.6796875,109.97095,64.48584,-6.3131294,-38.26413,-9.412598
95,74.57446,-86.30322,140.12598,-7.245117,107.46973,56.342285,-13.567455,-44.11075,-10.831299
96,75.47778,-82.00415,144.12207,-1.3945312,111.43176,53.40332,19.114159,-26.31128,7.6691895
97,70.625244,-86.25366,135.96191,3.0878906,98.36255,48.728027,18.074017,-34.165466,3.6906738
98,74.16943,-89.86597,135.0625,11.602539,100.56592,62.251953,-0.6691208,-40.620758,-7.169922
99,79.40796,-82.92139,140.99316,2.2890625,110.775024,60.745117,-12.700911,-41.871002,-13.53125
100,75.697266,-84.14404,142.88672,-8.170898,112.592285,53.30371,6.362129,-33.26709,-3.0158691
101,76.4751,-80.27637,147.87598,3.352539,115.74304,52.97461,32.638355,-16.687317,18.793701
102,72.14258,-90.82202,142.35449,4.682617,106.30249,57.129395,19.2589,-27.60025,8.861816
103,81.400635,-86.497314,129.86621,1.7363281,87.54443,55.197266,-29.063862,-63.47339,-27.560303
104,98.08887,-65.89404,149.0039,5.2626953,114.47925,64.86963,-7.661978,-42.00363,-9.440674
105,76.43042,-86.835205,145.83008,-6.3125,116.8584,45.734863,21.05994,-29.167236,4.5092773
106,78.13916,-82.38574,149.55957,10.796875,119.71924,54.90039,35.867,-17.340942,16.98291
107,77.39819,-86.113525,148.69434,11.869141,107.91431,56.4541,2.2440948,-34.736816,-4.779297
108,77.076416,-86.77881,136.17578,-3.665039,95.151245,47.166016,-35.39394,-62.26532,-36.321533
109,81.86279,-76.1311,132.84082,-5.057617,94.0072,42.589844,-24.804485,-61.0813,-29.03003
110,85.79443,-69.750244,145.84473,6.970703,112.179565,50.94629,21.254131,-26.88147,7.8342285
111,77.71582,-84.36743,146.49902,7.0791016,111.11755,48.65039,15.627289,-32.046204,-2.4882812
112,76.576416,-87.39429,140.03906,2.2763672,101.48279,48.46631,-19.513565,-51.7959,-27.885742
113,72.94336,-82.30664,137.46289,-3.2666016,101.854004,44.93164,-27.696905,-59.369232,-36.045166
114,73.9187,-75.21753,137.45312,1.6660156,109.73889,39.143555,1.7019958,-39.39209,-10.264893
115,83.71045,-69.354004,142.26953,12.504883,108.56702,42.19043,18.650887,-29.320312,0.84472656
116,81.27759,-80.21997,139.6709,11.749023,102.59119,48.543457,1.2955055,-43.415894,-12.49707
117,71.66821,-89.49487,134.38477,-3.1914062,99.3595,49.881348,-23.26043,-54.439056,-28.660889
118,81.838135,-77.05664,139.10156,-4.163086,109.42407,48.865234,-7.6101246,-43.157898,-10.594482
119,91.238525,-67.98633,149.36133,4.5458984,115.69702,46.97461,20.73378,-26.80017,6.0356445
120,87.72632,-71.89136,151.51855,18.521484,115.08679,48.330566,21.451805,-29.850037,2.7844238
121,78.27124,-83.08984,138.33301,16.878906,104.57483,54.302246,-13.589136,-52.419037,-26.203857
122,75.43286,-85.15625,134.52148,-3.4326172,102.41748,48.89502,-27.667082,-57.71396,-28.633057
123,66.26172,-88.16577,134.39258,-9.75293,107.267456,40.40576,-1.6399765,-42.32675,-10.056641
124,77.46289,-80.043945,145.35254,4.5947266,114.19104,43.399902,24.129883,-25.881042,11.25708
125,72.934814,-87.906494,138.86914,1.2421875,105.527466,40.33838,4.349972,-38.32837,-7.6745605
126,79.72583,-85.88989,143.5498,1.9169922,112.48413,55.742188,-12.565403,-43.93091,-18.270264
127,92.06641,-67.32544,148.65723,6.879883,118.44177,60.47461,-4.7867184,-33.01715,-5.9052734
128,89.55786,-68.58325,150.53027,10.666992,121.80115,51.315918,23.72076,-21.9859,12.17749
129,79.77954,-80.3667,148.0498,9.895508,120.15967,45.356934,24.669136,-25.564331,7.8864746
130,75.39087,-88.68945,136.8916,5.073242,109.1095,47.695312,-2.024334,-41.99225,-16.456787
131,74.309326,-87.99292,135.05469,1.375,104.86658,47.21826,-24.612564,-52.038147,-27.096191
132,87.69873,-66.8999,146.34277,10.875977,113.76257,46.82666,-2.3758278,-41.74237,-12.267578
133,85.559814,-66.32422,144.58496,21.167969,119.28235,51.581055,26.928318,-19.758026,12.005371
134,82.558105,-77.27783,146.08301,16.919922,115.996826,52.851074,21.38659,-25.337189,4.822754
135,88.14966,-77.20581,141.33105,11.443359,109.64038,52.40088,-9.772812,-38.714233,-14.441406
136,92.68115,-69.532715,144.91113,4.334961,110.70032,45.55371,-15.786606,-43.17929,-21.205322
137,87.72241,-68.79028,145.74316,13.424805,114.61194,45.1709,13.6788025,-32.081238,-2.7995605
138,87.74585,-71.20557,149.99707,25.385742,117.792114,54.12549,25.150589,-25.55072,9.5876465
139,84.66968,-78.41333,146.30664,24.828125,109.4469,58.59326,6.9685783,-29.705627,-1.4785156
140,77.17212,-86.96094,135.09277,4.4941406,101.2157,49.476074,-20.768711,-42.429474,-20.655762
141,82.76099,-74.664795,145.22363,8.59375,112.4978,46.83545,-2.1454086,-31.420776,-6.3117676
142,92.45044,-64.076904,150.44434,24.5,122.83191,53.868164,30.014492,-14.103882,15.127441
143,95.605225,-61.696777,150.7461,29.90625,111.8938,56.25244,20.569557,-20.557251,9.514893
144,91.775635,-71.895996,138.75684,18.106445,95.62976,49.308105,-21.518456,-53.233,-27.578857
145,93.15845,-70.21094,137.54395,8.527344,102.16992,47.54004,-24.18016,-51.78589,-25.791748
146,82.18652,-81.82959,144.75293,-3.243164,112.99243,37.953613,7.0347633,-29.99649,-0.48608398
147,92.33887,-68.322754,154.30762,14.894531,118.65466,40.075195,32.82725,-14.89743,11.86499
148,96.39307,-68.78467,148.83496,19.957031,107.12549,47.79834,2.4632645,-35.316284,-10.354736
149,92.235596,-74.1333,139.45508,12.379883,98.87366,54.566895,-31.696875,-55.64624,-28.118164
150,93.88013,-64.06494,148.90625,10.657227,115.549805,57.77246,-6.5733395,-35.882965,-4.80249
151,89.52344,-65.52197,157.79883,15.345703,127.45178,53.52832,36.96181,-9.096985,17.885742
152,86.08472,-75.35425,149.95508,15.959961,121.16101,47.936035,29.613995,-15.392029,10.2229
153,88.07007,-76.063965,140.16309,13.219727,105.73157,46.80127,-17.021227,-48.121277,-21.19458
154,85.84546,-78.82837,137.77441,2.2998047,102.82605,40.50049,-28.5155,-49.660553,-30.707031
155,94.21387,-61.089844,147.25195,15.503906,121.598755,50.85742,19.851685,-18.143188,8.701172
156,89.497314,-67.602295,149.1416,20.113281,120.349976,49.720215,37.297565,-15.4158325,17.11914
157,89.70044,-73.00342,144.13574,22.882812,105.93628,46.422363,4.23061,-41.586945,-10.366943
158,81.70752,-83.20703,135.85742,5.756836,104.46814,41.850098,-20.815928,-47.66794,-27.765137
159,70.22485,-86.51929,125.12305,-5.786133,98.69165,33.40381,-23.153606,-49.723175,-28.208252
160,77.00928,-74.12036,135.6875,11.96875,107.49426,39.93164,13.468353,-24.398102,2.567871
161,85.99609,-73.84717,140.43555,29.171875,104.36084,51.7417,22.839878,-19.220337,13.294434
162,85.87622,-75.637695,147.26855,27.080078,117.33423,60.371094,5.2405205,-25.144196,-1.4204102
163,79.86914,-84.67969,147.74023,9.7109375,117.6178,58.538574,-12.298918,-35.169373,-11.705566
164,80.85083,-79.56128,141.73535,1.6640625,114.81055,40.95752,0.6631584,-30.191376,-6.8393555
165,86.57056,-74.27124,146.56543,8.295898,115.87988,33.020996,21.242733,-23.001343,1.5898438
166,84.18408,-77.11792,134.7832,19.582031,106.46777,49.757324,13.694504,-20.133087,1.309082
167,92.49829,-70.51245,136.63477,17.835938,106.42297,52.23877,-12.427855,-33.62558,-9.998779
168,82.04419,-75.76538,141.85254,8.8203125,114.081055,47.44922,-13.868317,-32.319885,-8.860352
169,79.46924,-72.75488,146.5,15.015625,117.78772,40.412598,13.955917,-19.961731,10.866455
170,83.63013,-76.71777,152.35254,20.838867,116.776245,35.427246,19.402306,-24.956757,6.166748
171,92.03516,-71.87695,153.0918,20.123047,117.93921,49.632324,4.6352463,-25.03476,-2.239746
172,89.40015,-77.85254,132.3789,5.705078,106.60889,43.635254,-23.749477,-45.134583,-23.200928
173,98.430664,-62.463135,137.83105,12.097656,108.23523,42.56787,-8.905901,-39.444855,-10.843506
174,88.66333,-66.37695,149.89551,21.984375,121.29578,37.856934,17.808334,-24.730988,6.39917
175,85.27783,-76.680664,143.14844,14.4765625,111.59338,32.03174,10.781273,-27.536041,-3.631836
176,87.95337,-72.515625,139.8711,10.067383,107.53186,41.188477,-20.266401,-45.65448,-24.82959
177,75.70947,-80.41455,136.56055,-1.5419922,105.3241,26.875977,-27.19556,-57.05896,-40.651123
178,69.729004,-79.23657,132.30371,-8.745117,105.02844,14.765137,-2.1373978,-40.13974,-17.694824
179,92.74414,-55.135986,147.69727,18.722656,116.614746,33.60791,26.3233,-12.515167,13.078125
180,88.50049,-70.64917,139.71973,12.930664,104.746704,33.52588,-5.5981255,-39.58435,-15.050049
181,85.21875,-73.14111,143.94824,3.6894531,107.51355,37.823242,-26.319794,-49.032288,-29.161377
182,75.84595,-79.11694,136.48828,-6.4375,104.856445,29.714844,-21.597363,-47.445038,-24.76123
183,75.549805,-76.32202,141.98047,-0.82714844,113.012085,19.677246,9.431797,-36.24817,-8.696289
184,70.390625,-86.91675,138.49316,3.6826172,108.00781,19.110352,14.94783,-37.018036,-15.377197
185,78.67505,-77.36743,141.38867,10.172852,107.4668,36.708496,-13.189011,-39.40564,-24.784424
186,73.7146,-83.533936,135.99512,-11.322266,101.305176,31.089355,-33.185997,-53.667297,-30.131348
187,79.41089,-70.65576,145.81348,-3.0449219,112.392944,25.086426,-4.8140545,-35.140076,-8.299072
188,81.98169,-67.16431,144.01074,15.97168,114.80493,34.126465,19.444145,-18.748016,7.1379395
189,74.59741,-82.56201,141.52344,15.918945,110.34082,36.185547,4.495693,-27.771881,-10.658936
190,80.78076,-78.76367,134.91895,12.469727,101.34436,33.026367,-29.204071,-48.30359,-37.419678
191,79.86621,-75.66211,136.03516,7.0126953,107.238525,38.348145,-24.119564,-42.611725,-19.942871
192,80.84741,-69.032715,138.96289,14.545898,110.058105,39.16162,7.222416,-28.200134,3.8220215
193,84.63623,-69.29077,143.72754,24.59375,111.01843,35.415527,13.969543,-24.843384,1.1591797
194,84.53735,-76.517334,142.46582,24.579102,105.17517,41.930664,-7.646166,-34.892487,-15.855957
195,91.79004,-68.45459,142.14062,18.816406,108.395996,47.74756,-24.623587,-39.6102,-19.536621
196,93.32178,-57.640137,139.35352,11.174805,108.96338,38.70117,-8.13653,-33.7995,-11.055908
197,86.170166,-61.3125,152.74902,30.501953,120.29309,49.52881,31.397373,-4.0699463,20.609863
198,71.21973,-83.64502,136.90527,12.676758,102.66113,36.56836,6.0110397,-26.178864,-3.2185059
199,82.77124,-74.37427,139.41016,16.879883,102.52832,51.68701,-23.786343,-38.273285,-13.350098
200,91.77197,-59.02832,140.78906,20.338867,109.362305,53.32129,-16.912163,-32.5307,-7.2907715
201,75.21655,-72.33838,135.67578,3.3359375,99.82495,19.929688,-2.1021156,-35.78952,-13.006836
202,77.90161,-75.456055,133.30371,11.536133,94.881226,18.136719,1.655468,-40.87021,-16.50293
203,81.82031,-75.417725,131.39941,14.900391,96.77051,34.847168,-19.184149,-51.310486,-25.497803
204,79.12622,-78.08667,134.8252,13.255859,99.89148,43.70703,-29.364975,-52.298462,-26.583496
205,65.674805,-83.71533,131.73828,9.479492,100.11841,37.421387,-14.54516,-41.26767,-15.003662
206,80.13721,-65.77124,146.22266,19.29004,112.82605,39.90088,21.595509,-17.770355,7.3830566
207,87.232666,-65.678955,141.0459,30.097656,102.66992,43.254395,3.0986443,-32.25168,-1.5727539
208,86.02368,-65.5105,133.5586,24.125977,92.69336,41.26465,-33.08019,-55.0701,-31.603271
209,88.36621,-62.741943,138.4707,13.767578,104.50842,41.7041,-27.860415,-47.397736,-22.79126
210,81.2937,-64.47632,137.85352,11.478516,102.03357,40.049805,-5.2232666,-34.503357,1.2558594
211,84.20923,-68.14453,145.79102,16.663086,108.38953,36.195312,12.626743,-29.16092,2.8032227
212,87.50342,-69.726074,137.52637,12.198242,98.66736,35.569336,-14.092184,-47.247437,-17.863525
213,93.64844,-61.03247,136.37598,11.636719,96.11548,43.34326,-35.317204,-53.934814,-29.042236
214,97.66333,-54.46338,135.67773,17.137695,100.71509,46.65625,-19.234215,-42.095886,-8.135742
215,91.99707,-52.68994,139.92773,17.442383,104.86047,32.50879,7.647129,-25.842834,4.048584
216,85.94092,-66.19653,128.1836,7.6523438,95.96167,17.76416,-2.8498192,-41.581696,-15.430664
217,86.08594,-71.29956,126.009766,4.7734375,102.69092,33.549316,-22.150887,-45.38382,-25.30957
218,88.20825,-56.771973,127.65723,16.032227,99.8551,49.161133,-29.953562,-49.321075,-22.374512
219,111.93164,-31.465576,145.95898,28.71289,114.27185,55.129883,4.905216,-21.717804,8.084961
220,95.05151,-48.54297,141.35156,17.37793,101.43945,34.80371,10.149166,-25.66214,6.3581543
221,97.783936,-55.97754,142.4668,17.685547,101.25769,33.416992,-11.63625,-43.29065,-16.610107
222,90.714355,-63.01465,131.71387,3.5625,91.77173,28.495117,-46.292114,-63.776886,-41.043457
223,92.98242,-57.68872,135.62598,3.868164,101.42102,31.75879,-22.979475,-41.483124,-20.376953
224,91.83569,-58.476074,136.78613,5.1933594,97.64319,22.717285,-4.9823494,-39.127777,-10.047363
225,95.8418,-52.63208,136.30273,11.2109375,87.74109,21.822754,-12.297625,-48.49518,-13.13623
226,98.4126,-55.453857,131.70996,13.53418,85.520996,25.824219,-36.093754,-60.16513,-36.927002
227,80.836426,-68.918945,122.34668,1.6669922,86.78821,29.149902,-41.29358,-54.01288,-35.14966
228,72.791016,-74.117676,130.01367,-6.7246094,84.78992,14.085449,-29.017807,-48.745117,-22.801758
229,80.40552,-66.05298,136.9209,16.111328,93.41504,29.480469,-1.0650215,-33.897858,-0.68725586
230,75.67163,-74.7395,125.54883,16.603516,77.65515,24.12793,-27.90898,-57.510315,-26.981934
231,81.89868,-70.62964,121.17285,18.375977,79.65454,34.61084,-47.56812,-61.122955,-35.19336
232,73.97485,-70.0376,119.89258,6.6308594,88.0813,30.200195,-32.52313,-47.221283,-24.002686
233,68.80493,-77.23926,112.4707,-5.3671875,77.86157,7.1953125,-21.900955,-49.33554,-21.222656
234,73.02734,-70.11279,123.90332,15.239258,81.787964,17.428223,-11.47616,-45.30484,-15.100098
235,80.61084,-67.015625,127.04004,23.699219,86.17102,34.118164,-29.13758,-54.80493,-23.716797
236,78.19849,-68.25,119.20801,5.8632812,81.413574,25.623047,-50.306934,-68.95987,-46.208496
237,76.63403,-66.75464,114.78906,3.225586,78.192505,22.074219,-39.502506,-61.236298,-29.89795
238,80.29224,-60.970947,124.96484,17.367188,86.03735,28.222656,-9.543577,-45.180786,-11.682861
239,78.89868,-72.55591,125.953125,14.3203125,86.04419,28.484863,-16.696218,-44.026276,-15.934082
240,78.534424,-74.52417,122.51465,4.2783203,78.83667,20.519531,-53.286873,-66.828186,-46.276367
241,80.02026,-73.33569,126.131836,-4.248047,81.27185,16.35254,-53.194862,-70.54193,-47.81665
242,76.086914,-70.899414,132.29297,-1.5898438,85.18286,19.177734,-27.181292,-53.40381,-24.511475
243,78.062744,-70.01367,130.37402,18.670898,87.48999,37.32373,-6.039814,-37.130524,-3.2954102
244,81.448975,-71.95996,120.45801,14.5078125,76.975464,33.722168,-35.09848,-54.143982,-22.869385
245,82.230225,-71.573,119.92578,-2.8730469,84.09595,26.751953,-51.35447,-63.783813,-39.749756
246,72.781494,-71.08911,121.06641,-4.28125,87.138794,23.178223,-37.172558,-54.660645,-26.386963
247,76.45361,-63.024414,135.41113,20.918945,102.923706,35.16455,6.650669,-29.858063,3.7719727
248,71.19409,-71.21265,126.1543,20.251953,88.9707,31.243164,-10.04414,-43.185516,-15.475586
249,69.26611,-81.86084,113.96387,6.899414,73.846924,32.166016,-52.698196,-66.741394,-39.799805
250,71.90234,-73.90723,115.05957,10.480469,78.41516,42.73291,-47.636696,-56.121246,-24.764648
251,57.531494,-80.931885,116.81055,-6.7158203,79.03711,22.145996,-31.15126,-53.599884,-21.67041
252,76.83276,-61.30713,131.56348,16.874023,91.03406,31.101074,-3.6200237,-34.158264,-4.80542
253,73.26782,-73.3147,126.57617,17.945312,87.467896,31.856445,-19.51315,-47.491608,-22.665527
254,66.64697,-75.97998,122.06641,8.586914,81.80054,36.316895,-42.625362,-55.441223,-30.996338
255,74.368164,-62.71582,130.02637,16.472656,91.22681,44.853516,-27.30354,-43.772217,-12.748047
256,68.67554,-68.5686,118.993164,13.416016,80.92578,30.731934,-7.3518124,-36.314575,-4.5874023
257,60.73462,-78.2334,125.75488,17.546875,84.7262,27.163574,-5.2526207,-36.041016,-8.868408
258,62.304443,-75.36426,123.80957,13.535156,83.81311,32.63867,-35.89103,-55.409058,-28.467285
259,57.5166,-82.99585,115.325195,-3.819336,75.489136,23.219727,-56.21351,-70.06601,-39.21118
260,62.43213,-70.596436,119.02051,2.78125,84.12964,18.009277,-29.071873,-54.838257,-25.142334
261,75.84961,-59.551025,121.39453,20.473633,80.14734,26.490723,-2.7088509,-35.86075,-0.4189453
262,76.32495,-58.16748,114.52832,23.918945,72.4635,32.024414,-18.361177,-43.559296,-11.76709
263,79.60083,-68.48877,111.90234,6.8320312,66.14026,25.129395,-53.490692,-67.724915,-43.98828
264,69.53198,-72.30176,117.490234,1.3925781,83.24451,23.85254,-44.262085,-60.910828,-32.40918
265,44.23584,-96.67578,113.850586,-20.539062,91.29089,10.511719,-3.8030548,-37.34668,-8.11084
266,54.33203,-88.279785,120.94141,3.2041016,92.19031,15.089844,8.246746,-31.928162,-0.68774414
267,68.57422,-73.59546,116.8457,11.605469,82.65344,28.533691,-29.078203,-54.379425,-29.471924
268,74.704346,-71.2334,107.461914,9.78418,74.77942,35.827637,-49.006676,-63.441895,-33.813477
269,74.56006,-60.71997,106.22949,11.900391,76.00488,41.063965,-26.420101,-43.95874,-6.0771484
270,69.52905,-64.56055,116.643555,9.589844,82.81799,28.950195,-0.7961159,-30.638885,7.32251
271,71.18042,-70.64917,122.71484,9.332031,90.06067,28.30127,1.1641731,-33.4252,-5.039551
272,56.07666,-88.36426,111.69043,-7.9384766,78.7345,21.58545,-42.066975,-61.799347,-37.07202
273,57.976562,-79.51904,107.288086,-15.203125,81.458496,18.419434,-40.74609,-55.943665,-30.73877
274,53.936523,-80.055176,105.08301,-13.977539,74.84241,8.015625,-18.226501,-47.374756,-19.43457
275,66.92627,-71.24097,117.96777,4.6533203,85.062256,23.675781,0.47694016,-34.035614,-5.642578
276,66.88257,-74.46362,103.293945,0.95410156,69.583496,25.120117,-33.03302,-52.10852,-21.61792
277,58.378174,-88.877686,100.28711,-19.90918,68.56055,22.030273,-56.717407,-68.619965,-40.556885
278,56.561035,-83.52051,110.41406,-23.210938,79.94995,16.229492,-34.993557,-57.515717,-28.92163
279,51.6792,-79.6228,112.694336,-12.6953125,81.43933,11.984375,-11.891937,-46.838135,-11.894287
280,57.987305,-80.81543,116.43848,5.6445312,82.28259,28.27246,-8.969454,-40.054718,-3.1384277
281,67.19287,-72.4541,108.50781,1.2978516,67.737305,29.936523,-40.895794,-55.54727,-27.67749
282,78.223145,-57.332275,114.19043,5.071289,82.09668,42.35791,-37.383896,-48.0365,-16.79248
283,75.079834,-61.628418,108.46777,-5.1640625,78.51526,21.250977,-25.503107,-51.67749,-16.00293
284,91.01611,-49.9563,121.64453,7.6933594,88.59534,29.847168,5.151966,-31.649567,2.1269531
285,86.148926,-60.802734,107.89258,-1.6474609,71.718994,24.307617,-21.994967,-42.684906,-14.459717
286,106.60474,-41.43921,104.506836,1.7216797,69.533325,41.117188,-48.08624,-49.96158,-21.826416
287,110.734375,-41.96704,101.77246,-8.31543,67.486694,27.223145,-41.754707,-52.6539,-18.217041
288,124.8772,-20.508545,119.91797,2.5908203,79.10901,27.863281,-12.471996,-39.029266,1.7583008
289,132.46509,-24.164062,122.453125,11.516602,78.349976,30.066406,-16.09631,-43.837494,-6.550049
290,126.19141,-30.909424,106.91992,-1.4277344,63.358032,24.309082,-46.767693,-65.682556,-32.06299
291,122.20093,-33.190186,100.66992,-10.985352,62.041504,22.91504,-59.97118,-71.791046,-38.557373
292,129.34497,-20.556885,113.67871,1.8681641,75.157104,31.048828,-27.526728,-41.019836,-6.7177734
293,120.74072,-26.112305,116.14453,15.3203125,76.4353,28.586914,-1.203804,-33.829254,6.0253906
294,120.61963,-25.40747,119.25391,19.072266,79.22449,33.53955,-13.0494175,-41.033478,-4.7685547
295,123.62109,-25.533447,106.552734,1.3886719,60.444946,27.069336,-56.90317,-65.803314,-34.059814
296,145.75244,-7.055176,113.82422,-7.104492,70.30774,22.558105,-47.287495,-59.51523,-27.93872
297,168.57349,17.3833,119.63281,-0.041015625,79.8833,16.75879,-21.38807,-44.01361,-12.95166
298,155.23926,0.44091797,112.581055,-5.3652344,65.772095,2.9736328,-19.00664,-51.15802,-21.917969
299,146.48853,-5.3466797,117.75781,0.29589844,71.84558,26.994629,-34.20797,-49.506714,-21.50415
300,126.19336,-22.02539,102.3291,-11.644531,64.0105,23.892578,-58.424942,-63.46823,-36.77173
301,116.45117,-22.328613,103.02734,-9.981445,76.06641,15.84082,-32.472748,-45.959625,-20.879883
302,105.19678,-37.30542,100.1875,3.3339844,70.927246,22.045898,-4.1514664,-33.62433,1.7666016
303,109.16943,-32.869385,109.76953,18.88379,77.477295,40.543945,-11.659824,-37.021667,4.2370605
304,92.49585,-55.25122,104.896484,-0.3857422,76.78931,34.664062,-38.48698,-52.66153,-25.334229
305,82.58057,-57.578125,104.72656,-10.191406,81.71179,30.600586,-33.004147,-45.592255,-16.343262
306,72.70068,-64.28491,106.45801,-7.0273438,81.96533,25.148926,-11.106319,-35.822968,0.55444336
307,77.28613,-62.375977,105.15039,6.899414,84.75696,33.59375,11.087051,-18.931946,18.751465
308,60.96045,-75.704834,89.21387,-7.649414,61.81714,25.995117,-33.308613,-49.23224,-18.067627
309,65.91406,-77.09668,93.28125,-14.235352,66.96631,23.841797,-48.140938,-57.12079,-28.740967
310,63.151123,-70.72876,99.46484,-16.41504,85.09473,23.175781,-24.031315,-45.599945,-12.246582
311,65.30469,-68.99902,107.34473,-7.3310547,78.9845,15.803223,-9.133955,-46.67447,-8.266846
312,71.23193,-74.06372,110.95215,0.7246094,81.21411,28.775879,-11.195719,-40.801636,-1.6074219
313,66.32178,-77.541016,99.80078,-3.0839844,68.633545,33.0708,-47.04496,-58.376892,-22.174316
314,57.120117,-81.190186,86.956055,-23.867188,62.995728,15.1875,-57.550026,-68.54736,-38.76001
315,59.388916,-72.224365,102.18262,-12.7890625,79.8678,15.979004,-20.860477,-47.15628,-12.625488
316,55.871826,-67.99072,102.81543,0.4169922,80.8833,25.94043,-1.4088821,-33.306732,1.4526367
317,45.817383,-89.43628,102.7168,-6.635742,83.384766,29.22705,-15.01017,-35.093384,-6.890625
318,58.789795,-77.00073,100.265625,1.9414062,74.61548,47.331543,-36.805283,-46.196686,-12.703857
319,61.320312,-67.33716,97.600586,-3.3691406,69.990234,35.39453,-36.717228,-46.509583,-12.250977
320,65.28613,-64.53906,105.6543,-2.5791016,79.98157,24.050293,-3.3268986,-31.37204,5.604248
321,57.63208,-77.024414,102.46582,-5.2148438,77.40466,17.029785,-6.786236,-38.731323,-3.8742676
322,55.76831,-81.7478,102.41992,-9.3203125,71.854126,23.186035,-33.9033,-49.482758,-22.142334
323,38.701904,-99.29126,86.12891,-31.475586,58.843018,8.160645,-59.209496,-70.71417,-40.015625
324,58.895508,-68.02051,101.39258,-10.922852,79.78174,21.41211,-17.3699,-41.859436,-6.260498
325,62.55249,-61.559814,99.10254,1.8818359,74.62988,26.140137,1.5516548,-29.663116,10.478516
326,50.28784,-83.005615,95.83594,-5.673828,63.913086,18.48584,-22.6487,-43.54608,-10.968262
327,41.88086,-95.33179,95.08008,-16.516602,65.5741,14.275879,-57.694626,-67.52911,-35.33203
328,43.38867,-93.54736,92.243164,-23.713867,70.00452,9.567871,-46.34698,-60.28781,-30.116943
329,41.090576,-89.927246,97.30664,-21.667969,76.30737,4.4370117,-10.980257,-41.304535,-9.807861
330,57.63745,-80.764404,102.14551,-1.6894531,78.207886,20.472656,-0.64364624,-30.197205,0.86035156
331,62.43042,-82.79883,94.96387,-6.2402344,65.99475,25.89746,-33.383442,-53.023224,-18.022217
332,54.329346,-87.676025,91.56543,-21.735352,67.507935,22.59668,-49.38912,-61.73111,-29.1604
333,50.18164,-83.9082,102.447266,-14.876953,80.59985,21.960938,-20.85167,-42.160095,-6.960205
334,50.888916,-82.54028,106.0957,-10.28418,76.649536,8.599121,-2.3001518,-40.97989,-7.126709
335,54.37451,-85.45923,102.63281,-10.817383,75.02478,14.910645,-12.115595,-43.229492,-14.548828
336,57.43579,-82.471436,94.08887,-9.106445,65.88916,32.73828,-44.458763,-56.30591,-24.026123
337,55.5083,-79.01587,97.02832,-19.71582,65.479004,25.394043,-42.635284,-54.019897,-22.939209
338,53.01001,-78.44922,109.708984,-23.416016,77.59546,19.71045,-7.8347626,-34.124115,-1.7241211
339,68.331055,-69.39673,112.825195,-3.4853516,83.71924,27.519531,5.436737,-26.896729,7.3413086
340,59.835938,-80.61255,105.600586,-7.2822266,71.944336,28.737305,-25.992882,-45.70273,-14.756348
341,57.641846,-80.34204,92.89844,-15.895508,58.75,27.341309,-54.483963,-56.50055,-26.312256
342,71.176025,-65.77246,99.09863,-15.558594,66.25452,24.157715,-34.887447,-50.014496,-14.760254
343,51.072754,-79.80493,89.88867,-23.94043,55.871094,3.5947266,-12.464863,-39.728333,-5.3774414
344,70.24121,-67.85083,106.47461,-4.091797,73.76135,27.717285,-3.94108,-26.358673,6.5219727
345,58.578857,-78.39282,98.06641,-12.149414,61.178223,28.69336,-46.784695,-55.854736,-23.918213
346,61.388428,-70.41553,101.12988,-14.628906,69.22827,30.719238,-46.283134,-55.042023,-17.076904
347,51.360107,-77.908936,96.24414,-22.783203,69.799805,14.323242,-16.41174,-40.524536,-3.994873
348,56.608887,-71.41162,100.356445,-12.299805,70.653564,10.230957,1.6901054,-35.217194,-1.0737305
349,58.972412,-79.42871,93.10742,-14.763672,62.246216,14.015137,-25.107159,-47.226044,-16.599365
350,55.434326,-82.980225,85.29004,-28.789062,53.1604,16.408691,-57.79283,-67.04819,-33.74463
351,52.546143,-76.97754,93.643555,-27.88086,63.639526,21.853516,-43.816273,-54.85971,-15.519531
352,65.27344,-61.019043,112.43164,-1.6933594,82.8501,34.020508,-5.8521004,-31.66806,13.167969
353,62.931885,-69.43262,106.27832,0.16601562,74.347534,32.410645,-3.6163654,-36.861755,4.925537
354,56.748535,-81.677734,95.36621,-14.838867,53.518677,20.336426,-50.713387,-65.647125,-32.28125
355,56.19458,-79.57886,100.12891,-23.629883,65.41785,25.40918,-45.997025,-54.93933,-22.400146
356,55.220947,-76.59888,96.13672,-28.339844,62.186035,11.4375,-32.245995,-53.095642,-13.076416
357,55.424072,-73.32739,99.73926,-14.762695,66.27844,21.963867,-4.5763454,-35.108124,9.419434
358,65.30322,-68.41577,106.00879,-6.2304688,69.55554,23.885742,-21.914013,-48.515594,-11.522217
359,48.607178,-85.67627,89.90332,-27.510742,53.17334,15.829102,-57.137817,-75.561035,-44.266357
360,53.88867,-74.36426,96.98047,-29.60254,63.272827,16.359863,-41.662033,-60.549927,-25.956787
361,49.613037,-78.52466,95.69141,-27.041992,66.869385,14.417969,-10.497606,-45.196808,1.753418
362,53.958008,-75.3833,100.89453,-18.532227,72.7605,14.399902,-3.3059578,-43.36914,-3.2648926
363,56.079346,-77.271484,96.78125,-18.41504,63.36682,22.206055,-27.965374,-54.41214,-21.43872
364,50.09253,-81.23584,88.56641,-31.402344,55.775024,11.668945,-57.901505,-74.34131,-40.867676
365,50.68091,-78.97827,87.81348,-39.249023,59.719482,5.3530273,-30.945671,-61.85034,-25.539307
366,56.812744,-69.40234,107.325195,-16.53418,78.97644,12.098633,10.399296,-35.59015,6.1674805
367,59.69629,-70.00488,97.180664,-13.296875,64.83435,19.56836,-7.084461,-41.870544,-7.2182617
368,63.3562,-72.31445,85.475586,-27.697266,55.428467,16.480469,-45.821644,-65.750885,-34.376953
369,59.404785,-73.91821,88.08887,-34.308594,58.5271,9.708496,-42.730846,-65.2717,-29.568115
370,42.656494,-85.548096,92.87598,-45.07617,59.42273,-11.368652,-20.183739,-64.242615,-23.8479
371,51.438477,-80.43677,101.83594,-29.714844,75.77515,6.286133,4.6103935,-39.920044,-2.902588
372,68.008545,-67.52344,111.63965,-10.958008,70.06897,30.068848,-14.291475,-40.356262,-4.798828
373,58.79834,-72.666504,95.36426,-27.853516,54.01953,19.851074,-50.72522,-66.635925,-32.010498
374,59.091553,-71.64819,92.359375,-27.736328,54.914185,19.489258,-27.102867,-52.65204,-14.189941
375,58.814697,-64.299805,103.37402,-18.293945,67.635254,13.737793,4.5438194,-32.998566,9.875
376,46.62329,-85.73364,95.91113,-28.186523,52.37915,-1.3237305,-24.452091,-64.22467,-23.763184
377,43.40869,-88.056885,89.00586,-32.85547,46.853027,-5.0356445,-54.579067,-80.2825,-49.461914
378,44.793945,-88.00708,89.44922,-42.716797,58.47473,2.8364258,-42.40307,-65.993256,-33.807373
379,45.26758,-83.3042,100.47266,-33.36133,70.64075,12.15332,-4.0284595,-38.23407,-0.3564453
380,49.223877,-75.15869,98.487305,-15.857422,70.277954,19.09375,8.733723,-28.646301,8.846191
381,46.233887,-81.76636,86.024414,-20.808594,51.466553,13.483887,-27.725044,-59.805817,-17.000244
382,49.25586,-85.34961,83.805664,-38.51953,46.09912,8.287598,-56.783157,-78.13559,-42.4375
383,51.568604,-74.53833,87.28613,-33.13379,53.387817,6.494629,-37.046406,-60.466034,-23.218506
384,49.77954,-74.35986,97.13281,-24.109375,68.77576,11.266602,14.24535,-29.055328,6.359131
385,48.18994,-78.64795,95.68164,-22.046875,60.971436,13.626953,4.342373,-38.37607,-8.346191
386,64.33447,-68.71802,100.05371,-19.041992,65.64917,29.543457,-16.111048,-42.965515,-9.526123
387,54.287598,-77.562256,89.07422,-35.76172,55.651,19.82129,-38.30742,-58.93991,-21.624023
388,61.100586,-68.54053,100.58594,-28.973633,67.08606,19.556152,-6.670271,-42.57776,-2.3598633
389,49.29419,-79.76099,96.21387,-24.483398,55.81201,8.880859,-6.9827156,-53.84259,-10.864746
390,61.88208,-70.91528,97.05078,-12.566406,60.996704,26.326172,-6.2081203,-42.5325,-6.605713
391,59.854004,-74.96265,90.52832,-27.859375,50.399536,22.730469,-41.519203,-57.941467,-24.575928
392,58.984863,-68.056885,96.14453,-36.914062,54.486694,13.407715,-32.46357,-55.478516,-21.584717
393,59.036133,-69.889404,97.03613,-31.53418,67.8634,11.603516,2.9500313,-43.323364,-4.1904297
394,68.71777,-62.899414,100.07129,-20.799805,59.94397,13.750977,-2.0321045,-46.719635,-9.813721
395,59.437744,-76.641846,91.10449,-40.140625,47.796997,0.52246094,-44.785675,-76.20853,-43.22461
396,56.53882,-75.85181,92.3584,-41.345703,52.760376,13.665039,-46.48508,-69.07037,-37.410156
397,61.431152,-66.33667,100.06445,-33.186523,60.351685,18.942383,-7.7978687,-42.8161,-7.9763184
398,62.477783,-64.20044,108.072266,-20.520508,74.016235,21.45459,21.115639,-20.872162,18.51538
399,57.677246,-75.48511,99.80664,-25.635742,61.74121,12.616211,-1.1004982,-44.095123,-7.8449707
400,62.87622,-70.12256,95.112305,-29.853516,55.848022,7.1796875,-40.01437,-70.46762,-39.739014
401,52.903076,-71.242676,92.08789,-40.45215,48.27942,8.184082,-41.21418,-72.41803,-37.570312
402,52.851807,-73.50366,95.643555,-33.88086,61.902344,16.052734,3.3364372,-42.302155,-4.173584
403,56.58203,-70.77368,99.06348,-30.22461,63.097534,9.450684,10.568081,-36.586548,-0.21972656
404,58.50537,-71.97925,92.07129,-30.707031,46.592163,4.3408203,-35.85539,-70.32349,-38.40161
405,62.259033,-65.555664,92.71387,-34.89453,50.87268,9.538086,-41.84249,-72.5629,-44.0813
406,67.18994,-54.422607,110.42383,-29.132812,71.70386,15.556152,-6.8458195,-46.27661,-8.122559
407,60.45703,-63.567627,109.61621,-26.902344,70.66174,9.981934,12.886509,-36.390137,0.55810547
408,51.011475,-76.39282,96.53613,-30.416016,58.78235,10.93457,-6.507765,-55.053802,-16.470215
409,51.596924,-74.63013,89.387695,-37.030273,45.449463,13.63623,-43.65695,-76.57294,-39.410156
410,41.02881,-83.203125,82.88281,-49.121094,43.878662,9.479004,-47.66532,-74.95892,-37.26758
411,50.845947,-68.99292,91.57129,-35.89453,53.33838,8.461426,-12.651924,-55.378235,-16.281738
412,69.24829,-52.90332,106.70996,-14.4296875,69.318115,14.267578,12.679562,-39.28775,-4.6308594
413,58.583252,-74.628174,93.58984,-31.735352,52.201416,3.1210938,-27.141407,-71.53613,-42.943604
414,70.21655,-64.595215,103.11133,-27.101562,64.91113,22.246582,-27.536388,-63.139496,-30.302002
415,54.328125,-71.49341,97.453125,-39.7334,53.4718,17.192383,-17.790937,-50.668976,-14.705322
416,50.730957,-76.258545,94.04297,-35.750977,51.725586,5.7490234,0.12646484,-47.18579,-7.968506
417,60.81372,-68.95557,92.44922,-27.006836,48.709595,3.5947266,-17.431316,-68.26959,-29.88208
418,59.154053,-70.91699,91.75195,-29.929688,47.864746,11.787598,-34.944813,-70.06525,-41.104248
419,50.587646,-73.1311,84.96973,-40.478516,53.859253,13.489258,-31.188358,-60.953644,-31.125244
420,48.47339,-74.216064,99.87402,-45.054688,65.90991,-1.3920898,1.6530876,-44.26355,-13.432373
421,55.843506,-64.383545,104.89453,-25.919922,63.268555,2.8569336,10.273083,-50.975464,-18.063232
422,58.17383,-71.52588,92.15039,-24.182617,46.76306,7.2475586,-26.589397,-75.50296,-35.315186
423,52.31909,-75.701904,77.69922,-29.99121,45.707275,26.207031,-35.086823,-64.200836,-24.981445
424,57.230713,-64.84766,83.43652,-26.242188,45.7854,25.507324,-22.262938,-54.37146,-13.497314
425,73.03174,-53.18335,100.708984,-21.882812,53.963257,12.620117,7.219261,-47.473694,-8.604736
426,57.431885,-68.56348,93.09668,-27.248047,53.421143,2.400879,-1.2791176,-59.45221,-20.794678
427,62.996338,-73.088135,94.69238,-25.71582,55.36621,16.122559,-13.647924,-54.99759,-25.005371
428,50.79712,-76.7251,91.08008,-35.895508,48.781372,16.234863,-32.587376,-61.194183,-29.718506
429,60.139404,-62.282227,95.65137,-33.939453,54.864746,18.091309,-9.005247,-50.389282,-6.8588867
430,67.92749,-51.419678,105.88379,-18.02539,58.282715,14.905273,10.339325,-49.022125,-1.2949219
431,70.1814,-54.424072,88.06836,-17.231445,44.696655,9.0625,-15.166681,-65.12497,-24.268066
432,54.849854,-74.81714,97.97461,-24.740234,58.10144,21.870117,-25.973095,-63.019684,-26.666504
433,46.851074,-77.72949,99.211914,-36.435547,60.40393,12.27002,-17.833288,-60.65033,-23.294678
434,45.902344,-83.213135,99.15625,-37.936523,59.932007,10.609863,1.6733513,-53.192963,-5.227783
435,34.820557,-97.68921,93.743164,-36.801758,53.880005,4.6655273,7.536701,-50.783936,-7.223877
436,54.63379,-80.051025,99.52832,-28.20996,54.76758,12.952148,-13.033417,-58.108337,-20.632568
437,57.834473,-72.45874,90.76172,-32.484375,45.23999,14.342773,-34.930054,-72.95044,-31.306396
438,54.37793,-65.15625,101.075195,-32.15332,56.503662,13.364258,-11.142666,-60.37213,-13.195557
439,51.653076,-68.066895,104.081055,-26.145508,66.9281,10.349121,19.770195,-41.67926,6.008789
440,49.490234,-75.826416,104.38965,-22.94336,61.634155,17.372559,8.802895,-44.773315,-1.0205078
441,44.824463,-86.147705,89.27344,-36.33203,49.93335,15.520508,-33.807106,-68.53772,-27.354736
442,44.781982,-80.843506,91.21973,-39.3291,53.958252,17.395996,-32.361893,-67.52826,-25.385498
443,50.246094,-76.84985,90.90039,-35.671875,53.0542,17.191895,-2.0533524,-50.64151,-0.3852539
444,67.43701,-59.154053,112.36035,-13.462891,69.00098,29.565918,26.757408,-31.923553,11.326172
445,56.737793,-72.04834,104.34082,-24.603516,67.37915,20.556152,-1.8309441,-50.252777,-16.419922
446,52.533203,-76.13086,104.30762,-38.078125,68.229004,19.966797,-24.20777,-66.6575,-27.838623
447,40.47046,-81.173096,96.47461,-50.70508,69.43054,8.568848,-8.431625,-54.498047,-15.996582
448,39.663574,-77.80493,94.18457,-40.648438,60.733032,5.701172,18.091263,-42.10379,0.7973633
449,51.367676,-72.45703,97.08984,-22.166016,56.90796,16.02539,4.0627556,-51.73105,-3.8850098
450,64.28369,-72.65161,95.5,-34.433594,48.30078,19.478516,-32.77162,-75.27585,-34.69702
451,38.67578,-88.86255,86.29492,-56.539062,44.295288,4.7617188,-46.878292,-86.32526,-48.36499
452,52.036865,-70.0437,98.265625,-38.322266,64.7511,16.09668,3.3226395,-49.865692,-5.4033203
453,49.142822,-74.72925,99.91211,-32.822266,67.69812,11.760742,16.456268,-43.88791,3.8339844
454,47.67334,-78.70288,95.04199,-30.59375,56.357544,16.144043,-2.3248482,-52.410583,-14.792725
455,54.287354,-74.38818,94.62988,-37.051758,50.082886,19.36914,-31.272041,-65.784485,-29.15039
456,50.17749,-68.703125,84.56445,-51.124023,40.387207,6.198242,-32.511005,-70.99844,-27.597656
457,43.791992,-74.93335,92.78223,-49.69629,55.940186,2.3061523,2.071186,-59.121613,-7.112549
458,62.56421,-58.621826,108.478516,-23.84668,70.760254,21.986816,23.19173,-38.79834,8.023193
459,39.820557,-85.33472,84.71484,-51.351562,42.54651,6.1015625,-27.723635,-72.34027,-31.000732
460,42.715332,-80.26514,90.2334,-56.592773,44.399536,7.6083984,-38.958424,-68.95813,-31.530518
461,27.874756,-89.98901,83.5625,-60.84668,45.85254,-9.84375,-17.141157,-63.734283,-21.383057
462,44.215332,-76.18384,91.586914,-41.643555,51.798584,3.241211,8.61676,-47.316498,-2.2858887
463,39.380127,-89.05664,87.302734,-50.61328,47.627686,4.54541,-10.624952,-68.94592,-28.770508
464,49.64917,-77.80737,91.61035,-40.289062,53.730347,21.752441,-31.070225,-70.92499,-25.320312
465,42.65674,-79.95361,92.481445,-54.94629,51.18518,6.7822266,-22.575052,-65.54343,-20.967285
466,42.90674,-73.36426,101.00586,-47.11621,58.945923,0.28759766,17.528679,-42.64331,1.3637695
467,47.16382,-75.01123,97.43262,-40.438477,48.1239,6.440918,4.9552574,-51.56363,-4.0041504
468,47.558105,-77.506836,84.88281,-39.4209,41.61499,11.016602,-26.770958,-77.96002,-35.661377
469,56.7937,-67.03418,97.80957,-37.506836,59.74951,17.888672,-22.75232,-63.56308,-25.482422
470,50.745117,-70.21948,99.37598,-42.17285,62.838257,22.623047,5.172451,-43.68393,3.364502
471,56.6062,-61.884277,103.7832,-31.670898,64.7135,24.742676,24.641415,-36.017273,16.453613
472,38.277832,-89.15015,87.958984,-49.97754,41.539795,1.1025391,-10.660479,-64.02252,-13.454102
473,38.20996,-92.42993,95.10254,-52.39258,50.16455,12.532715,-19.829285,-59.471405,-17.167969
474,46.706787,-73.424805,92.99609,-50.52246,50.80066,14.890137,-20.196373,-59.214386,-13.817383
475,47.6333,-70.621826,98.07324,-38.899414,51.03308,12.646973,0.16098404,-58.37436,-5.7038574
476,45.31714,-72.73364,103.06348,-30.769531,55.28882,15.940918,13.343906,-47.937073,3.7836914
477,57.299072,-69.30127,106.23242,-30.976562,55.83008,25.57666,-4.807499,-51.8537,-1.5627441
478,44.47632,-78.45923,96.458984,-52.411133,43.170166,12.807129,-36.16676,-70.288574,-26.77246
479,43.953857,-73.98755,102.73828,-52.398438,56.448242,14.55127,-8.829716,-53.551575,-5.7734375
480,52.48755,-67.78638,106.42578,-41.2666,59.007202,5.5546875,16.786785,-43.07263,2.6428223
481,52.68164,-70.42969,104.74707,-41.5459,53.572388,3.3261719,2.5996857,-57.207367,-12.307373
482,46.28833,-79.010254,94.67871,-39.225586,47.970215,17.174805,-27.815794,-66.449554,-22.259766
483,55.573975,-62.721436,102.03906,-43.53711,54.06909,26.407227,-20.601099,-58.553833,-10.211426
484,54.682617,-60.656006,94.87402,-45.9209,51.51953,9.475586,-0.63529587,-51.4664,1.3847656
485,54.238037,-67.70972,113.3584,-30.69043,59.871094,16.923828,14.694553,-40.585785,12.873047
486,59.904297,-65.78467,105.4834,-41.399414,51.422485,9.231934,-13.828304,-61.406036,-15.417969
487,56.42505,-72.521484,98.64453,-58.259766,49.6698,-0.3774414,-32.983982,-78.73386,-44.385498
488,60.27124,-60.906494,108.56445,-45.129883,55.499634,14.557129,-8.734575,-56.608307,-13.457275
489,55.148438,-64.03003,103.72656,-34.82617,48.617554,19.023926,4.5699806,-52.278442,4.9189453
490,66.18945,-52.33374,105.424805,-25.124023,50.82068,30.685547,6.5001984,-45.442474,12.279053
491,63.182617,-63.47119,104.20996,-33.057617,49.67871,27.86084,-22.084866,-63.446655,-16.116943
492,50.28784,-68.26758,105.04492,-40.311523,52.474243,31.586426,-26.664864,-61.315704,-15.289307
493,47.360596,-68.5061,106.12109,-52.742188,52.994873,5.828125,-5.922411,-52.072266,-4.9257812
494,49.080322,-74.19531,105.668945,-42.554688,52.43274,9.683594,16.701233,-41.708527,7.5202637
495,56.005127,-70.25513,104.13867,-26.84668,47.40625,28.396484,-7.496557,-55.151703,-6.411133
496,42.963867,-83.93799,93.22168,-44.804688,36.95935,17.562012,-46.48946,-82.02988,-33.028076
497,53.090088,-63.972656,104.256836,-41.65918,52.26465,23.717285,-21.356022,-59.87329,-9.954834
498,56.291992,-58.4917,111.72656,-40.177734,55.284058,13.475586,6.334385,-47.78888,6.2370605
499,47.833984,-71.23389,98.11426,-42.816406,41.005005,8.356934,-6.772587,-61.357056,-8.008057
500,42.10034,-86.9209,85.5918,-56.557617,31.24231,5.786621,-36.230297,-78.25839,-33.349365
501,49.296387,-76.059326,94.86328,-50.573242,51.196777,20.96582,-30.480295,-67.41254,-20.187256
502,27.766357,-90.876465,87.32422,-60.570312,43.780518,3.8310547,-19.110392,-70.59015,-16.917236
503,30.135742,-89.78638,97.762695,-48.648438,44.772705,7.241211,0.3262825,-63.34317,-2.918213
504,45.908203,-83.33911,104.0625,-45.67285,47.176147,13.413086,-6.626938,-61.149963,-13.831787
505,40.441406,-90.934326,92.78906,-60.53125,35.05188,3.2973633,-41.205837,-80.41269,-38.792725
506,48.59082,-77.67847,97.70215,-50.0166,45.645752,17.394043,-22.861763,-61.65674,-12.379883
507,36.84668,-85.161865,92.06836,-54.720703,45.859985,5.9179688,3.547741,-52.266144,-0.31274414
508,46.04297,-79.79248,103.88379,-43.551758,52.644775,11.767578,13.12542,-47.37027,1.3911133
509,55.017334,-73.700195,99.12305,-42.745117,44.566284,18.283203,-20.976316,-69.24115,-18.756836
510,52.149414,-75.93237,97.956055,-57.66992,46.183228,10.136719,-31.193874,-72.46048,-25.666016
511,58.820312,-63.319824,101.63672,-54.20996,48.23999,9.103027,-10.455729,-60.032227,-13.13501
512,64.42041,-54.73242,106.86133,-37.213867,55.24585,12.453125,15.426998,-47.23532,2.0454102
513,57.590576,-62.31201,105.10156,-26.896484,58.794556,27.256348,17.206154,-44.047363,4.3132324
514,55.63745,-69.8645,100.1709,-36.320312,52.379883,25.969238,-11.203798,-56.693115,-13.354248
515,54.31958,-66.10083,107.64551,-44.163086,66.36548,25.811035,-3.5206528,-50.043915,-7.0705566
516,39.951416,-69.278564,102.66699,-50.03711,55.055176,9.650879,9.21537,-50.136078,3.8774414
517,53.87915,-59.33008,102.84277,-32.61328,53.74768,16.13623,13.976395,-47.443268,8.76123
518,61.052734,-60.57422,109.2207,-16.679688,59.728027,40.698242,7.3020134,-42.89099,8.52832
519,45.723877,-74.87671,97.63672,-46.34082,48.02307,19.69873,-20.439701,-62.923553,-18.913086
520,44.17163,-69.70825,103.95801,-48.833984,55.050537,11.625977,-3.6664104,-54.582336,-3.824707
521,46.71118,-70.965576,107.44238,-41.09082,62.304077,12.716797,25.673843,-36.396973,22.058838
522,54.372314,-62.532715,104.03516,-29.856445,50.212646,24.312012,11.397446,-43.59897,15.198486
523,56.58423,-61.657227,105.899414,-30.381836,50.97058,27.611328,-15.960634,-54.853638,-3.9033203
524,35.006836,-75.79663,92.11035,-48.32422,45.743042,17.114746,-31.94199,-69.04196,-19.624268
525,32.883057,-75.42041,101.5791,-46.996094,56.042603,9.762207,5.5325623,-51.663513,1.2209473
526,34.338135,-77.87378,101.41113,-40.969727,53.554077,8.883301,17.408707,-46.978455,5.7734375
527,33.531006,-81.70532,89.7832,-44.2666,36.801514,5.5532227,-12.398888,-65.41565,-16.612549
528,43.625244,-73.06836,97.2334,-43.526367,48.988525,21.591797,-20.064495,-60.17798,-6.222412
529,23.979248,-82.88281,91.5293,-60.83203,39.647217,4.90625,-26.35088,-67.882324,-18.223389
530,24.263672,-81.36035,94.9082,-49.655273,41.151,-1.4042969,-0.568882,-62.664215,-9.248291
531,35.45459,-78.54443,96.66797,-37.444336,42.41638,11.525879,1.7151985,-58.914093,-5.2819824
532,28.690674,-86.785645,87.97363,-42.18164,31.598755,10.601074,-33.3508,-78.154755,-31.62622
533,34.55835,-82.17505,95.72168,-48.436523,45.5531,17.288574,-29.031187,-67.67331,-21.784912
534,37.953857,-73.52319,107.552734,-49.618164,55.39795,10.389648,-2.2717628,-53.825073,-2.3059082
535,40.738037,-74.93799,109.86035,-36.225586,55.976685,13.793945,18.463135,-47.38626,9.660645
536,42.740723,-76.09253,96.12012,-38.44336,40.496338,10.79541,-12.234835,-70.31183,-18.150879
537,48.92163,-67.846436,98.50879,-39.125977,43.17749,17.592285,-33.579502,-78.410126,-29.833008
538,50.67212,-64.352295,91.62109,-40.04883,38.44812,16.568848,-33.18387,-76.13553,-22.475098
539,48.323975,-64.01123,98.20117,-36.805664,48.01709,8.505371,-0.018032074,-59.032684,-3.3684082
540,43.079346,-77.88159,105.00195,-34.481445,50.223633,8.563477,1.4261093,-64.97455,-10.220459
541,35.1687,-89.73193,93.453125,-44.07129,36.981445,6.255371,-28.432272,-80.58276,-30.790527
542,26.63916,-90.97412,94.44824,-57.890625,33.151978,-0.77978516,-50.547997,-97.60828,-49.930664
543,33.91162,-77.46411,99.01953,-49.987305,44.2511,-0.45263672,-19.838018,-71.617645,-22.844482
544,43.677246,-67.39014,101.75586,-34.63086,48.30188,4.8535156,8.0311775,-54.25183,-2.7158203
545,40.742188,-75.65454,100.771484,-36.125977,47.11792,10.547852,-6.1328697,-61.87039,-8.536377
546,42.22339,-76.5647,112.12598,-42.94922,58.095337,18.725586,-21.767448,-67.37567,-20.07837
547,29.077148,-85.20117,88.38965,-52.79297,40.223145,7.1870117,-39.273067,-82.13324,-30.06128
548,30.890625,-72.14746,95.38379,-47.60254,49.8927,5.0776367,-1.2825737,-59.3743,-7.406006
549,42.777588,-65.81885,109.43945,-32.211914,54.411133,16.365234,13.001289,-46.79123,7.022217
550,37.979492,-74.28711,102.043945,-35.416016,49.31848,18.303223,-12.777582,-62.971558,-14.596924
551,39.134033,-67.97241,101.0332,-38.69922,53.860718,19.875977,-31.88783,-71.92981,-24.09497
552,32.19214,-72.990234,100.62109,-44.853516,52.875366,14.787109,-17.560392,-61.34494,-11.615967
553,28.952148,-75.105225,100.646484,-40.70996,49.9823,7.918457,10.389694,-50.05069,0.92089844
554,27.956055,-80.579346,100.302734,-41.1875,40.26465,1.0024414,-12.774813,-70.30081,-18.212158
555,27.590576,-83.666016,90.37695,-46.179688,35.078857,11.719238,-46.13362,-88.83087,-36.93335
556,36.965576,-72.82056,99.22949,-45.961914,40.204468,17.060059,-34.359222,-75.43329,-26.1875
557,41.10498,-66.99658,101.73828,-49.6709,50.645874,7.4433594,1.1415291,-52.956146,-3.605713
558,42.88086,-68.085205,109.10156,-36.526367,55.221436,9.433594,16.323044,-44.751495,5.7858887
559,40.80493,-75.33008,98.893555,-40.594727,40.00708,4.6850586,-26.037922,-75.964294,-29.384521
560,39.487305,-73.210205,96.87598,-50.16992,43.072266,5.176758,-44.46621,-82.9458,-42.456787
561,52.70874,-56.971924,116.01367,-37.453125,49.655396,18.439453,-14.119759,-55.89734,-14.151367
562,44.833008,-64.968994,107.48926,-41.03418,41.91858,6.61084,-0.053131104,-55.810425,-4.1503906
563,41.98877,-69.59473,102.0332,-38.43457,32.523315,-2.0600586,-19.260689,-74.575806,-19.864014
564,42.28125,-73.22583,95.94922,-45.586914,28.638184,3.6289062,-50.01552,-92.05365,-40.50244
565,34.16504,-73.581055,91.65723,-51.871094,32.750366,1.7919922,-46.11299,-80.7388,-37.070557
566,33.95996,-78.04907,96.177734,-55.45508,33.74121,-11.163086,-24.948467,-75.29315,-30.469482
567,34.878174,-73.46631,103.57422,-45.657227,37.4552,-13.215332,-10.860046,-72.137054,-23.64795
568,40.215088,-71.79028,97.649414,-43.472656,34.928345,-0.47851562,-33.661774,-79.97748,-28.039307
569,31.479004,-80.92554,86.15039,-58.950195,23.690308,-1.6586914,-55.945274,-91.39172,-40.739746
570,49.90869,-55.86963,99.447266,-50.19043,44.676514,4.852051,-36.114265,-72.699036,-22.02539
571,46.997803,-60.132812,104.413086,-42.29004,51.289185,-0.03125,-4.5968285,-63.962036,-10.184814
572,32.61792,-75.14844,99.78711,-46.20996,45.431274,-7.9941406,-4.943161,-66.84497,-16.157715
573,40.60083,-75.67041,97.30469,-42.913086,38.162598,5.387207,-33.635723,-80.01901,-33.02466
574,39.5,-72.37134,95.77051,-54.398438,38.098022,-2.3417969,-49.51225,-88.44461,-39.655518
575,39.30786,-67.014404,95.081055,-61.871094,38.267456,-8.629395,-34.04959,-82.90387,-28.824463
576,49.02124,-53.622803,100.88086,-39.088867,41.456543,-3.0024414,-9.0140915,-71.096405,-15.2404785
577,66.08008,-48.858643,114.80664,-28.856445,51.837524,7.7666016,-11.126434,-65.818146,-15.311035
578,48.129395,-63.768066,105.71289,-38.77246,41.60742,10.722168,-41.798138,-83.180695,-35.15039
579,44.761963,-63.264893,93.18945,-54.86621,36.855713,-3.6230469,-48.700695,-93.312256,-42.637695
580,49.163574,-50.41284,106.015625,-35.094727,59.11609,12.151367,0.5314293,-55.581604,-0.12060547
581,63.65747,-43.9209,115.31055,-20.789062,56.751465,16.330566,8.620041,-47.30905,7.717041
582,16.56836,-97.78491,77.75586,-64.21484,21.654907,-10.623535,-52.206337,-93.6308,-42.12207
583,37.51831,-72.12427,86.68848,-45.07715,38.99231,13.898926,-52.59895,-88.70477,-37.88086
584,31.257324,-72.52661,101.78516,-56.621094,44.559204,-2.8168945,-32.937862,-81.841736,-30.007812
585,24.847412,-79.13599,88.30762,-54.515625,42.17993,-15.933105,-7.8603306,-69.893036,-17.246094
586,37.924072,-71.552734,102.79785,-39.38672,47.96814,-2.7202148,-12.890383,-68.76117,-15.392822
587,16.457275,-91.97925,83.3291,-60.918945,21.07898,-12.979492,-70.033585,-111.880585,-57.251953
588,24.617188,-79.7666,93.916016,-55.32129,39.063477,-1.9912109,-56.42311,-97.50873,-42.77832
589,10.736572,-88.19678,90.83496,-62.399414,39.593018,-17.419922,-25.96545,-82.40161,-26.212646
590,9.287842,-90.32886,95.49805,-44.155273,40.01416,-8.995605,-11.521902,-74.58566,-16.811523
591,16.997803,-90.601074,93.97168,-40.603516,38.01355,-2.961914,-39.3383,-88.85068,-35.15161
592,16.80371,-90.41016,88.87402,-50.316406,32.2218,-4.0117188,-67.75375,-103.02762,-50.376953
593,7.031006,-94.25659,87.552734,-64.04492,38.409546,-13.677734,-48.264893,-93.48193,-37.573486
594,5.437256,-101.04053,95.26758,-66.25781,43.805054,-20.438477,-20.733788,-80.65781,-24.157959
595,20.375732,-88.86621,96.24512,-49.10254,47.263916,-8.628906,-16.159773,-76.81705,-22.925781
596,31.32959,-77.671875,99.12598,-39.623047,54.07068,9.078613,-39.441242,-82.66852,-32.17041
597,20.029785,-91.391846,82.48047,-56.914062,35.480347,-0.27685547,-60.542297,-104.21689,-44.47412
598,13.219482,-93.808105,83.197266,-61.713867,35.763428,-11.77832,-37.967285,-88.22946,-30.658936
599,9.336914,-91.66577,90.82617,-43.509766,44.261475,1.5976562,-10.065971,-69.89484,-5.668701
600,5.994873,-104.36841,87.94141,-55.939453,37.522095,-6.4160156,-36.599617,-89.09412,-33.136963
601,19.035889,-94.88501,91.54297,-46.69043,48.668823,13.42627,-44.33429,-81.68152,-29.768066
602,7.4624023,-99.27197,90.89551,-54.04785,52.27356,8.133789,-30.60698,-77.54617,-20.373047
603,10.767822,-88.87622,98.36426,-44.717773,55.773315,2.1313477,-5.25255,-66.800385,-6.769287
604,16.920898,-91.25488,90.68848,-41.944336,45.285645,-2.425293,-15.619072,-77.63989,-16.852295
605,17.567139,-95.062744,90.7168,-46.20508,44.235718,2.0,-41.154808,-90.98892,-36.77173
606,11.350342,-95.701416,83.85547,-60.48242,41.953003,-6.4501953,-54.725082,-101.614105,-47.77368
607,21.28418,-84.217285,92.4375,-52.814453,50.20996,-7.2836914,-21.670517,-81.34036,-23.640625
608,14.470947,-88.051025,95.291016,-41.02539,52.478516,-1.0268555,-4.902876,-70.39459,-9.762451
609,16.810303,-94.28882,99.93555,-42.749023,55.85254,3.260254,-13.232323,-73.66705,-16.847412
610,25.824951,-86.6001,100.62988,-40.871094,58.622192,11.423828,-32.526745,-74.58801,-25.07666
611,5.611328,-102.45361,83.6582,-64.552734,43.418823,-7.154297,-36.734047,-79.29053,-26.696777
612,13.205322,-89.96167,102.475586,-50.93457,57.510376,-5.0615234,1.3101883,-57.24228,-2.5620117
613,7.7644043,-97.46216,91.29492,-43.95117,46.682007,-6.7680664,-4.829439,-61.20636,-8.639893
614,6.116699,-104.367676,86.58984,-42.9375,47.44641,2.9077148,-30.533089,-78.62741,-27.760742
615,15.416016,-95.77344,99.22461,-45.581055,60.965942,11.61377,-39.62078,-82.21451,-26.666016
616,7.7075195,-96.61157,92.43164,-55.186523,57.577393,-5.720703,-22.509876,-79.02551,-18.503174
617,11.045898,-96.782715,98.634766,-46.86914,56.666748,-11.473633,-0.76133347,-66.37897,-7.7280273
618,18.794678,-94.52173,106.45117,-33.63086,61.47583,-1.762207,-6.6083794,-64.59366,-12.807373
619,13.225586,-100.97046,96.42383,-46.453125,48.984253,-2.1743164,-41.16678,-83.81998,-35.179688
620,7.840088,-97.7749,99.74121,-58.722656,52.613037,-9.948242,-37.43713,-84.06854,-33.970215
621,16.702393,-90.842285,111.106445,-45.213867,66.11792,-4.084961,-2.0737877,-63.59558,-8.216553
622,15.983887,-87.52588,102.899414,-42.90625,59.321533,-6.4335938,6.045784,-57.616974,-1.7910156
623,17.899414,-89.96997,89.7959,-36.395508,46.630615,2.8417969,-32.1906,-79.379425,-24.5083
624,15.525635,-87.46387,90.8125,-34.808594,48.642212,6.310547,-47.970577,-85.77582,-35.710205
625,21.802979,-74.9292,97.91406,-27.232422,63.627563,10.284668,-18.104088,-63.565216,-12.23584
626,25.353516,-72.22095,108.03223,-21.949219,71.906006,4.8310547,10.154537,-51.215057,4.0771484
627,28.731201,-76.38257,114.48828,-27.180664,67.901855,-6.270996,-4.976572,-65.13336,-12.428223
628,28.013916,-88.475586,108.43457,-40.754883,60.246216,-5.289551,-42.59411,-88.401764,-39.416748
629,21.121582,-89.858154,92.87402,-51.429688,55.506104,-8.635742,-40.8827,-90.30435,-40.373047
630,15.170654,-83.27588,91.2793,-44.054688,68.95337,-9.56543,-6.806658,-63.429016,-11.525879
631,18.647705,-79.523926,95.09375,-26.819336,59.517334,0.62939453,7.6527863,-54.729523,0.36865234
632,-1.637207,-106.8396,92.48242,-58.814453,57.450195,-16.529297,-25.582603,-87.25693,-38.476074
633,12.106934,-93.0979,100.75098,-48.530273,67.278076,3.0791016,-34.306282,-85.5199,-35.289795
634,24.052246,-75.39307,109.15625,-42.09082,71.99878,6.0581055,-10.86447,-66.59906,-15.646484
635,31.35913,-73.58594,108.23633,-30.385742,71.97815,4.4936523,14.631397,-51.46988,8.406006
636,36.220947,-75.40234,107.88867,-23.205078,83.02905,12.841309,18.026875,-48.090973,7.015381
637,25.124756,-91.174805,102.80469,-44.740234,61.61438,-5.520996,-27.780424,-83.913055,-36.00464
638,31.308105,-80.71704,112.7207,-49.359375,77.87048,-0.19091797,-22.269855,-74.11429,-29.590332
639,29.322754,-80.343506,110.78906,-52.10254,74.23071,-10.049805,-4.3582287,-70.764984,-14.650879
640,6.5024414,-101.1355,58.9375,-29.17871,46.868774,-38.726562,-52.495872,-116.46878,-43.906494
641,2.5773926,-99.73291,62.229492,-27.882812,46.138306,-43.584473,-22.533613,-98.21344,-25.23706
642,6.4260254,-98.68555,61.265625,-15.50293,45.155273,-42.86914,-21.026762,-95.598206,-33.10962
643,20.79419,-85.934814,63.851562,-6.743164,47.979614,-23.84961,-45.967392,-103.08191,-44.615234
644,13.604492,-93.66016,58.345703,-14.794922,46.00598,-25.129883,-55.962257,-107.39252,-49.044434
645,12.725342,-89.447754,66.09863,-13.597656,58.271362,-28.749023,-18.640402,-84.438965,-24.01538
646,13.629639,-83.298584,72.350586,-0.1796875,59.61487,-23.237793,1.5288086,-69.722595,-13.581299
647,2.4702148,-101.90967,60.143555,-12.796875,42.073486,-29.00293,-35.772182,-92.40967,-38.742676
648,2.9716797,-104.43701,57.23828,-21.469727,43.857788,-30.44336,-60.82405,-107.00821,-54.50244
649,5.36084,-98.978516,58.13379,-19.621094,45.796875,-24.786621,-41.82779,-90.33371,-36.614014
650,10.739502,-93.256836,67.67969,-13.326172,53.111206,-28.760254,-9.646574,-70.25302,-16.898926
651,19.136963,-88.80713,80.168945,3.5966797,63.173584,-13.509766,0.6391449,-61.771667,-7.1359863
652,8.458008,-101.26172,63.362305,-18.566406,42.680542,-25.047852,-49.68509,-94.72571,-46.19458
653,5.543213,-102.64575,58.24707,-29.813477,43.402588,-27.996094,-53.984383,-94.04999,-51.56665
654,15.822998,-86.07739,74.53418,-16.958984,59.86548,-21.850098,-22.267933,-71.4003,-21.502441
655,10.936768,-90.718506,68.56641,-13.467773,47.879883,-27.886719,-14.909325,-73.581085,-19.519287
656,18.995605,-85.72339,71.015625,-7.3789062,47.898315,-17.503906,-24.676586,-78.05798,-30.504639
657,10.941406,-95.09033,61.72168,-22.473633,42.78174,-22.063965,-55.952858,-96.41348,-53.787598
658,18.189697,-86.604004,66.62012,-29.203125,45.492188,-28.953613,-50.673813,-89.872284,-44.31006
659,16.493652,-83.01465,66.33984,-19.31543,56.61853,-23.179688,-6.0456486,-58.733887,-10.291016
660,3.553711,-94.31763,68.21582,-16.138672,46.090942,-31.661133,-11.6880245,-66.410614,-19.53003
661,18.384277,-84.19946,66.83887,-11.155273,41.401245,-26.22754,-46.449974,-87.635254,-46.559814
662,14.136475,-88.38452,60.847656,-22.878906,38.194702,-25.86621,-61.585934,-94.95203,-55.051025
663,20.6875,-75.28418,73.48926,-12.110352,55.947144,-13.255859,-25.494062,-66.98279,-24.558838
664,15.343506,-82.043945,74.02246,-14.758789,56.93091,-19.796387,-1.3165512,-52.9982,-6.6083984
665,21.891113,-83.13599,72.28906,-9.604492,53.56372,-17.674805,-14.418629,-63.26523,-16.811523
666,11.33374,-95.00464,58.439453,-27.894531,38.552734,-27.790527,-53.61173,-89.524536,-53.787598
667,20.617676,-84.12573,63.896484,-29.106445,46.394165,-23.146973,-48.562527,-82.58859,-45.065186
668,13.606445,-87.28638,69.63867,-19.84375,56.460693,-20.81543,-12.125483,-58.768524,-16.184326
669,3.614502,-101.37305,61.055664,-24.598633,33.654175,-36.266113,-20.656311,-74.57056,-30.521484
670,20.04126,-89.98999,66.13965,-19.707031,42.07495,-34.092285,-40.351704,-83.06152,-49.66089
671,14.961914,-92.4397,60.70215,-33.74707,35.76599,-34.313965,-71.26282,-101.19925,-62.874023
672,12.343506,-89.29346,57.81836,-44.213867,36.9386,-46.77539,-53.595528,-93.23569,-52.97119
673,12.752197,-83.262695,62.231445,-24.969727,50.000854,-32.768555,-15.1025505,-70.77136,-24.926758
674,7.3947754,-90.611084,59.911133,-27.893555,43.094727,-36.822266,-26.327524,-82.45737,-39.6416
675,18.627686,-82.368164,72.97949,-17.898438,49.873535,-27.509766,-44.4758,-82.19592,-50.57129
676,12.592285,-88.4082,69.44531,-38.28125,47.199585,-42.345703,-55.937668,-92.75836,-61.71118
677,10.286377,-87.96631,67.08496,-43.97754,43.74536,-51.50293,-33.735596,-83.631805,-46.49414
678,33.831055,-64.680176,81.12598,-13.301758,56.799805,-32.103516,-3.0474243,-61.86331,-23.895508
679,20.48462,-85.19678,66.78613,-26.233398,39.202393,-36.54834,-33.91138,-79.520996,-47.31494
680,20.419922,-80.12573,63.918945,-33.600586,37.82007,-33.623047,-53.864563,-90.36252,-61.47583
681,15.624756,-83.14087,65.76172,-37.48242,46.70227,-32.160645,-37.2062,-75.578705,-43.78369
682,20.987793,-72.70654,70.86035,-18.981445,53.827515,-29.439453,-4.2786064,-62.548584,-24.16211
683,18.013428,-81.81836,62.035156,-25.384766,42.248535,-42.99414,-20.106747,-74.78827,-34.989014
684,15.652344,-86.12573,56.26758,-31.36914,34.494995,-38.7583,-47.490784,-84.624664,-49.679688
685,21.111816,-77.62598,58.475586,-31.435547,37.919556,-28.801758,-51.41758,-83.70032,-49.79004
686,30.36084,-59.430664,77.194336,-17.125,56.594604,-26.651367,-18.18234,-60.340942,-26.741943
687,21.058838,-73.35449,74.45996,-27.341797,49.56128,-43.84082,-8.905226,-67.075806,-31.867188
688,24.497314,-79.510254,70.38867,-19.953125,43.354492,-37.172363,-21.043486,-75.368744,-42.721436
689,28.701904,-73.779785,60.493164,-22.279297,30.240723,-33.087402,-53.075455,-89.81659,-59.226562
690,34.705566,-65.238525,64.86914,-24.249023,46.731934,-26.131836,-33.469395,-71.11981,-38.4187
691,31.989502,-60.812744,64.30859,-18.13086,44.621216,-33.503906,-10.141121,-62.61499,-27.083252
692,24.240479,-74.174805,66.0293,-23.293945,39.708252,-40.393555,-11.017012,-66.5997,-32.034668
693,16.561523,-88.59766,62.426758,-35.49707,35.435303,-45.98633,-41.117447,-81.73645,-53.854736
694,20.97168,-79.069824,64.28223,-36.131836,40.222046,-32.49414,-49.008682,-81.651,-52.0437
695,16.82129,-78.5542,59.90625,-44.79492,34.650757,-45.271484,-39.840866,-79.73105,-49.697266
696,17.14502,-77.0437,62.93457,-36.385742,40.8125,-42.928223,-11.017809,-65.22992,-29.875244
697,14.747314,-79.85571,62.16211,-31.308594,35.050293,-35.99414,-20.733418,-69.14664,-36.644043
698,17.503906,-83.50464,61.01172,-40.75293,34.754272,-34.31494,-50.14506,-84.19183,-57.470947
699,13.542236,-82.086914,57.509766,-44.706055,34.847412,-34.92041,-52.6292,-89.408966,-59.10254
700,14.17627,-79.62573,70.44824,-30.5,46.320312,-33.518555,-21.415066,-68.51489,-32.119873
701,9.909912,-78.94141,70.833984,-30.379883,42.345947,-37.9834,-11.393892,-62.710693,-29.189453
702,21.967773,-75.308105,65.25391,-22.120117,34.090332,-23.576172,-40.976395,-75.870575,-41.54297
703,16.27246,-79.38306,59.38379,-31.30664,26.119263,-25.266113,-64.67551,-90.898346,-62.822266
704,22.697754,-69.83911,67.10547,-39.177734,40.240234,-37.486816,-39.972424,-77.81879,-50.35376
705,17.802979,-76.838135,75.125,-39.120117,44.346558,-37.172363,-12.396479,-62.983093,-32.830566
706,15.268799,-79.67212,72.75195,-26.148438,42.664795,-27.746094,-19.012922,-61.820282,-30.064697
707,12.9436035,-85.06494,63.01758,-35.762695,31.208862,-31.66504,-55.07589,-84.66193,-58.718994
708,25.654297,-71.07568,66.2041,-41.552734,34.736694,-27.828125,-52.798153,-80.80936,-52.124756
709,17.980469,-71.67993,62.09961,-32.032227,36.96997,-26.511719,-20.579021,-63.079437,-27.137207
710,24.225098,-68.38501,74.37305,-21.782227,44.754517,-25.023438,-1.871624,-50.70755,-15.141602
711,19.754639,-82.187256,68.631836,-32.38672,36.87805,-32.020508,-38.305717,-80.160736,-48.351074
712,16.317871,-86.39746,58.08008,-38.051758,30.567017,-34.472168,-59.37861,-90.776855,-66.11182
713,12.020752,-81.56909,63.070312,-41.13867,35.261475,-33.748535,-42.025063,-75.67493,-47.491455
714,17.57666,-73.551025,62.46875,-27.342773,39.21338,-31.377441,-8.6933975,-53.835327,-20.922852
715,21.41504,-77.315674,62.524414,-34.95703,30.211792,-36.162598,-21.286457,-69.23932,-36.565186
716,21.762207,-79.12988,57.35547,-35.029297,24.047852,-34.29883,-56.42729,-90.352356,-62.686523
717,19.00708,-80.48291,63.274414,-43.4834,33.28296,-35.05664,-57.077503,-87.070526,-68.295654
718,23.827148,-69.86572,76.31055,-41.98633,49.39624,-37.21289,-20.527718,-62.18155,-39.90747
719,5.69751,-89.656494,69.88281,-37.115234,39.864746,-40.368652,-13.518084,-66.412994,-35.12915
720,19.641113,-81.62427,77.305664,-28.768555,46.0437,-28.208496,-21.650942,-63.04898,-38.706055
721,10.310547,-90.90161,61.325195,-35.94336,29.197876,-28.817871,-57.18249,-85.39734,-63.57617
722,16.171387,-78.37842,59.4834,-40.223633,30.51062,-30.08496,-49.106705,-76.87747,-52.4563
723,39.351562,-48.7041,74.350586,-26.304688,52.971924,-20.003906,2.4316673,-45.6073,-19.313965
724,25.514893,-69.492676,73.12988,-23.088867,41.307983,-27.713379,-6.0976105,-54.14377,-26.568604
725,19.525879,-83.56494,68.28125,-32.916016,35.17395,-28.83496,-41.24225,-75.66095,-54.983887
726,8.890625,-85.13257,69.60254,-43.73047,49.19934,-26.14795,-41.899517,-70.22458,-54.495117
727,9.834717,-83.78784,74.57617,-41.003906,53.641968,-31.166016,-23.741135,-58.81021,-41.968994
728,16.392334,-70.117676,77.91406,-23.41504,51.732178,-25.66504,-1.6990128,-48.462463,-23.729248
729,27.286133,-67.403076,72.35156,-28.24414,42.80786,-32.25293,-16.108831,-61.709747,-40.98535
730,28.188232,-70.198,60.63867,-34.063477,31.115845,-34.299805,-51.288696,-82.17758,-67.52344
731,24.9729,-69.13306,68.28027,-38.078125,43.731323,-22.47754,-44.4858,-68.15167,-53.128662
732,16.432617,-75.17554,77.458984,-37.168945,51.11194,-27.791016,-8.491158,-45.306732,-28.565674
733,14.172607,-83.430664,76.424805,-40.445312,47.327637,-40.6709,-5.8514557,-52.86371,-36.57959
734,24.704346,-73.50293,79.95996,-31.59375,51.500366,-26.85254,-22.591581,-58.17383,-43.06665
735,27.830566,-70.832275,68.086914,-42.041992,39.12036,-38.10742,-55.47128,-77.8009,-66.95703
736,19.237793,-75.33423,63.335938,-55.786133,33.41992,-44.729004,-39.706814,-70.69318,-59.091553
737,16.91626,-78.24585,78.70801,-42.899414,56.888428,-29.973633,5.770584,-36.773224,-22.888184
738,16.36792,-82.67334,72.89844,-36.067383,40.763184,-30.083496,-17.058058,-56.851105,-38.388428
739,15.508301,-82.09619,68.075195,-45.254883,36.399292,-30.592773,-43.428257,-70.52637,-58.676025
740,18.69336,-77.012695,73.74609,-42.84082,42.229492,-24.832031,-48.132053,-72.159485,-60.294434
741,31.858398,-62.86743,77.47754,-32.40625,46.581787,-26.78955,-14.807844,-49.93701,-37.825195
742,27.690674,-69.80469,77.03613,-36.870117,48.12744,-29.806152,-0.65942764,-45.167328,-28.058105
743,24.176758,-79.478516,70.416016,-41.81836,36.626465,-30.746582,-32.389473,-70.6485,-53.600098
744,27.004883,-75.94995,75.74805,-40.4834,43.415283,-18.187988,-43.570026,-71.5401,-55.953857
745,17.589355,-72.39697,75.53027,-56.725586,43.91626,-30.663574,-37.535748,-68.50989,-52.678223
746,12.381348,-80.3667,65.086914,-59.487305,42.080322,-41.033203,-14.518648,-62.856598,-40.989746
747,18.481445,-80.35596,73.21777,-40.088867,44.789307,-31.515137,-12.802019,-61.42334,-42.84912
748,9.064697,-91.60474,63.249023,-55.751953,30.142822,-39.291016,-52.10462,-90.98251,-75.54224
749,12.770752,-82.13721,69.15625,-43.9209,42.860596,-18.543457,-43.535995,-74.87991,-57.04492
750,6.998047,-82.85864,64.03613,-48.23535,40.3385,-22.197266,-25.011387,-62.584564,-40.621826
751,33.341553,-59.276123,78.50391,-25.97168,47.03784,-13.421875,2.4514847,-43.48001,-21.294922
752,19.065674,-77.4812,63.63965,-40.49121,28.28601,-20.428223,-28.167023,-62.4097,-46.52881
753,24.632324,-70.389404,72.59277,-33.844727,43.958862,-8.508789,-37.09891,-59.6615,-49.238525
754,21.794922,-66.100586,77.5791,-41.1875,45.90039,-19.409668,-30.23882,-60.576904,-49.029785
755,16.770508,-65.57495,74.81055,-42.04492,52.331543,-26.252441,-2.4310036,-43.83188,-29.585693
756,6.6066895,-80.77173,64.59473,-34.9541,39.117676,-17.81543,-2.390892,-38.78531,-21.745605
757,14.015137,-74.05005,52.71875,-32.98047,24.772827,-14.584961,-36.60215,-58.16501,-45.865234
758,13.294922,-76.39331,62.16504,-43.719727,32.937134,-15.959473,-50.74965,-68.07309,-57.27954
759,6.0441895,-76.10889,67.31445,-47.085938,43.539795,-22.205566,-22.928415,-55.358032,-39.74756
760,12.812012,-65.91016,76.4541,-30.964844,47.65796,-18.36084,9.317593,-36.570007,-18.351318
761,14.425537,-73.39575,65.81152,-40.47168,39.64966,-24.351074,-10.304926,-46.436615,-36.780518
762,24.664795,-65.09473,67.03125,-32.286133,44.085815,-7.710449,-29.55196,-54.049896,-47.552246
763,20.358643,-63.831055,59.558594,-43.854492,35.84192,-17.406738,-38.05712,-64.769806,-54.522217
764,13.200684,-67.27734,70.98633,-41.270508,49.50476,-13.265137,-2.635086,-37.581177,-22.440186
765,29.219482,-59.44287,85.174805,-29.067383,55.500977,-11.099609,19.350193,-24.564697,-11.79248
766,8.567383,-82.253174,66.75195,-43.98828,38.809937,-29.648438,-22.741125,-56.108368,-47.13452
767,16.57373,-72.15381,74.55469,-43.148438,48.801636,-16.27539,-32.51213,-55.472137,-49.057373
768,15.955078,-69.39795,70.28906,-51.796875,46.656494,-28.05957,-17.182394,-46.60141,-40.440918
769,15.391846,-66.946045,73.90332,-42.1709,52.151978,-23.407715,11.522846,-29.879028,-18.50415
770,15.761475,-68.551025,76.08008,-29.395508,52.703613,-10.222168,10.551556,-30.434937,-21.316895
771,4.9453125,-83.1499,67.22266,-45.052734,36.350586,-19.534668,-29.584938,-57.46927,-54.132812
772,13.464111,-74.43359,74.38672,-52.05664,43.098267,-20.96582,-31.259438,-55.117157,-53.05957
773,8.978027,-75.33862,75.79492,-58.710938,40.16382,-34.489746,-18.593504,-52.868134,-43.061035
774,24.5354,-66.1228,86.243164,-39.816406,54.276245,-20.228027,16.404247,-29.64502,-18.420654
775,20.576172,-75.926025,78.24414,-37.875,45.16565,-10.562988,-6.583872,-40.423492,-32.24048
776,1.994873,-91.72705,54.618164,-58.197266,27.953247,-22.020996,-43.441833,-65.4382,-62.92456
777,14.987061,-69.492676,71.822266,-48.335938,43.459106,-12.451172,-17.527912,-44.32547,-33.503418
778,12.508057,-69.26416,74.512695,-44.152344,46.998535,-14.068848,7.7295494,-30.554321,-16.983887
779,13.491943,-73.09448,72.02246,-38.70996,35.31079,-20.034668,-3.6655083,-40.358887,-26.921387
780,20.29541,-66.61401,63.706055,-43.601562,22.693726,-18.566406,-40.43824,-65.91873,-58.688965
781,22.152588,-63.261475,74.37109,-46.885742,42.75818,-10.319824,-30.674623,-53.967834,-46.576416
782,15.252686,-63.367676,66.56055,-55.273438,41.31555,-16.817383,-1.7067413,-36.361877,-25.841064
783,20.918457,-57.655273,74.58008,-33.353516,49.19336,-5.4506836,26.723713,-17.448761,-3.1108398
784,13.0720215,-73.39697,67.58789,-43.308594,37.93286,-15.373535,-3.4881153,-37.661835,-31.91455
785,5.753662,-88.038574,58.929688,-68.947266,26.608643,-30.800293,-46.53614,-70.683105,-66.9834
786,27.55664,-57.019287,68.200195,-48.85254,38.95349,-11.96875,-25.998386,-51.70166,-45.04541
787,15.994141,-70.24609,75.92578,-52.805664,47.095093,-22.58252,8.528732,-37.204956,-23.196533
788,12.150391,-78.04028,66.28223,-54.757812,36.99341,-29.243652,4.021126,-44.359802,-35.298096
789,14.852051,-83.41382,66.3916,-58.36621,29.164185,-23.472168,-28.42317,-61.506897,-56.462646
790,12.977783,-81.5874,66.756836,-58.164062,33.28308,-16.187988,-41.703747,-62.579987,-56.460938
791,10.261719,-80.32373,60.319336,-71.56543,29.682495,-34.72705,-29.240211,-58.97052,-52.191162
792,11.981445,-72.688965,66.35547,-62.134766,31.249023,-39.47754,-2.6636734,-50.02899,-46.299072
793,22.444824,-68.31006,75.9375,-49.80957,43.757935,-24.168457,-2.2598572,-46.632202,-44.45166
794,5.9106445,-82.99927,66.75098,-61.072266,29.807251,-21.103516,-35.845676,-64.094574,-62.503662
795,3.3757324,-82.79004,68.90625,-67.666016,37.90857,-32.749023,-15.462765,-47.71518,-48.2666
796,9.673584,-69.57617,70.80371,-50.323242,43.242554,-24.254395,12.359531,-30.226654,-25.807861
797,18.211182,-65.786865,76.17578,-41.0791,38.93152,-18.312012,-1.9803658,-40.740967,-38.67334
798,10.603027,-73.20361,56.00293,-51.198242,24.29956,-11.77002,-40.047943,-64.65683,-56.45996
799,2.8310547,-85.58765,51.86914,-66.6709,21.71753,-23.219238,-42.301712,-67.16226,-61.075684
800,16.168945,-73.25464,73.84668,-53.70996,45.763428,-15.708008,14.079849,-25.827698,-21.48584
801,-4.659912,-95.95581,61.069336,-68.70215,27.408691,-36.19287,7.2290154,-43.966064,-33.6792
802,12.457275,-77.24951,73.76172,-45.620117,38.447998,-4.9677734,-3.2983074,-40.15622,-30.386475
803,8.904297,-83.59546,66.72461,-59.085938,28.609863,-11.078125,-34.70593,-56.440643,-50.895264
804,6.3376465,-77.710205,61.91504,-69.265625,30.028687,-21.308105,-23.710749,-55.42041,-48.78711
805,11.210205,-72.27417,74.57324,-52.617188,40.060303,-17.195312,13.508606,-40.557037,-28.514893
806,10.856201,-81.54956,70.61914,-58.351562,31.614258,-21.601074,5.5995483,-50.40094,-37.70166
807,15.585449,-77.22681,68.49219,-57.838867,33.624756,-15.938965,-20.176323,-62.47003,-55.61963
808,19.398438,-72.13989,68.85156,-58.05371,39.856323,-12.638184,-20.151905,-55.50879,-51.241455
809,28.108398,-58.901855,82.97363,-47.112305,50.651367,-3.0288086,14.242428,-30.599213,-20.045166
810,36.79419,-51.029297,82.13379,-33.157227,45.916992,-8.784668,24.189568,-27.827515,-17.197998
811,54.06958,-43.21753,77.75293,-33.713867,36.961792,-5.6655273,6.592449,-38.184296,-31.197021
812,61.950928,-37.861572,69.66699,-46.239258,35.94214,-7.361328,-18.987349,-49.395966,-46.93921
813,91.90039,-8.914795,88.081055,-44.635742,56.607056,1.2441406,2.0591164,-32.463196,-26.156738
814,105.700195,-0.8547363,89.762695,-45.148438,51.9021,-5.8081055,26.399326,-17.781097,-9.047852
815,115.41162,8.653809,88.50488,-35.91211,46.946533,0.07373047,25.886078,-18.375519,-9.9782715
816,110.40723,4.058838,85.731445,-33.063477,39.67102,5.758301,-8.864847,-42.16086,-38.790283
817,103.688965,2.1574707,82.05469,-42.17383,43.47058,8.353027,-10.126595,-37.676117,-33.67627
818,82.235596,-11.743652,76.16113,-54.21875,42.12256,1.8046875,10.433418,-22.908142,-11.779541
819,63.73047,-28.606934,81.09277,-48.211914,54.292725,-3.2641602,40.416523,-12.095764,1.1777344
820,63.940918,-29.755371,78.21777,-42.77539,42.203247,-9.95752,9.128281,-40.393402,-31.172607
821,52.82202,-44.28589,71.68457,-55.279297,35.335205,-8.868652,-25.207714,-58.611725,-52.928223
822,53.39673,-35.072754,80.87305,-49.492188,50.238525,2.5170898,-2.5413475,-39.62216,-35.672607
823,43.14502,-39.03882,76.03906,-40.979492,47.171265,2.9262695,33.928722,-13.224213,-5.854248
824,44.253906,-45.828857,80.59863,-39.256836,48.415894,1.6835938,42.905956,-3.495575,6.13208
825,35.931396,-52.880127,74.018555,-42.432617,40.180054,2.043457,7.2582703,-31.493011,-21.592285
826,24.77002,-63.441406,71.197266,-62.90918,32.88098,-6.3999023,-24.194677,-56.578552,-51.4187
827,27.60205,-56.157227,77.18457,-61.6084,38.263794,-12.166504,-2.9924011,-52.66388,-40.660645
828,21.901611,-56.894287,78.515625,-55.46289,42.90979,-13.237793,24.703388,-37.939423,-24.086182
829,28.606201,-57.03369,77.512695,-42.52539,40.261475,-7.637207,14.164532,-40.500763,-30.010498
830,3.5891113,-84.619385,58.86133,-63.658203,24.123291,-21.293457,-24.696892,-63.2583,-56.791504
831,11.429932,-71.55542,73.03906,-61.79297,46.81311,-4.5288086,-6.8720055,-40.77411,-36.123047
832,0.46948242,-73.490234,74.32617,-57.64453,50.30127,-6.5112305,25.774784,-23.784119,-13.504639
833,11.621094,-70.80078,77.706055,-51.561523,41.61841,-13.690918,30.255512,-29.343597,-19.683594
834,20.03833,-66.84277,70.609375,-42.916992,37.00818,-4.5146484,8.020805,-39.413788,-32.876465
835,10.088135,-80.85547,53.745117,-68.234375,22.086792,-21.07666,-33.4469,-67.99005,-61.61255
836,10.387451,-71.77515,74.487305,-58.396484,48.030273,-5.0932617,5.8178635,-32.626923,-25.1792
837,12.574951,-67.02734,87.1084,-43.930664,58.423218,0.92578125,45.93561,-10.428314,1.847168
838,10.11792,-75.0271,82.97461,-40.057617,50.989258,-1.550293,33.686176,-21.487549,-13.053711
839,10.553223,-78.91333,73.91504,-51.63965,37.860596,-5.11084,-7.8991413,-48.29126,-41.52588
840,10.26001,-74.95288,69.31348,-56.510742,36.456665,-3.9736328,-18.418781,-53.598297,-39.902832
841,8.746338,-75.795654,75.740234,-55.29883,50.082764,-2.7368164,19.40004,-28.805054,-16.295898
842,7.212158,-75.89917,75.819336,-49.86914,47.12854,-7.142578,31.506107,-27.030853,-11.131836
843,0.048828125,-87.135254,67.11621,-48.310547,34.50293,-6.0151367,6.466484,-44.356262,-33.64038
844,1.4289551,-89.18555,64.918945,-59.588867,27.02063,-9.583496,-22.86958,-58.46747,-54.345947
845,9.841064,-74.04614,63.23828,-59.958008,27.893555,-10.667969,-12.322773,-52.532104,-45.37622
846,11.698486,-67.869385,70.71973,-54.02246,35.873535,-16.084473,21.256123,-36.885834,-25.01294
847,11.777344,-73.96265,72.09668,-44.975586,34.639404,-13.012695,27.172958,-33.954773,-22.15039
848,-1.0124512,-89.52832,66.36133,-57.57422,30.699219,-15.907227,-0.99287796,-55.15753,-49.687256
849,3.048584,-80.64551,68.13965,-65.024414,40.009766,-10.180176,-11.178919,-53.028473,-50.49707
850,0.22851562,-79.00073,69.23047,-62.14746,41.850098,-14.729492,10.239727,-43.367218,-36.13794
851,18.066895,-58.91577,71.706055,-36.17285,40.479614,-0.31201172,38.02879,-21.853058,-4.2385254
852,9.932617,-68.741455,70.24902,-35.592773,38.934937,-0.030761719,22.491516,-34.532196,-19.405762
853,4.9797363,-74.30884,64.75781,-52.29004,32.475098,-9.582031,-10.497488,-58.260315,-49.462646
854,11.858643,-61.930176,73.03418,-48.820312,43.452515,0.9604492,-1.5449028,-46.99704,-33.42383
855,1.786377,-70.539795,73.33008,-54.200195,44.785034,-7.8251953,31.87495,-32.92694,-17.690918
856,1.0356445,-77.40112,76.478516,-41.39746,44.489136,-0.9169922,39.987667,-23.924713,-7.576172
857,14.082764,-65.50928,75.95703,-36.333008,41.112427,4.114746,11.672825,-40.444763,-25.529541
858,16.304443,-62.012207,74.918945,-44.250977,42.286133,2.9091797,-0.9484787,-47.241882,-38.173584
859,2.352295,-65.634766,73.291016,-51.958008,43.15027,-3.6088867,11.821178,-44.48285,-33.10205
860,-0.43774414,-66.200195,70.49707,-56.609375,39.408203,-8.689453,34.706867,-33.668762,-14.326904
861,10.532227,-60.132812,80.39551,-39.490234,48.129883,9.452637,40.464222,-18.457,-3.3205566
862,0.40576172,-77.66113,66.92383,-55.373047,30.87793,-9.803711,-3.8885136,-52.633698,-42.99463
863,17.432861,-59.020264,72.57617,-59.46289,30.343262,-5.9907227,-14.7971,-63.411255,-50.709717
864,-0.16308594,-67.677734,66.92676,-66.66699,36.485107,-18.237305,13.941265,-47.57242,-34.120605
865,4.880615,-63.307617,80.91211,-52.026367,42.718018,-11.534668,36.376255,-35.029297,-21.091064
866,11.814453,-63.73999,80.74512,-42.594727,46.60388,1.7177734,19.444092,-42.434418,-27.382812
867,7.303955,-70.06714,70.6582,-52.7041,43.182373,0.43115234,-2.9746094,-48.611298,-35.212646
868,3.2036133,-69.73096,66.293945,-62.759766,38.774536,-11.353516,5.3484764,-42.653046,-29.777588
869,18.648193,-48.593506,79.30762,-41.220703,42.44348,-1.6079102,38.99374,-28.302887,-10.929443
870,10.613037,-62.797363,71.89258,-42.6084,33.545288,-9.787109,21.047123,-42.045044,-25.671875
871,5.6157227,-67.96802,72.83887,-46.18457,37.052734,0.8725586,-0.9235306,-49.625122,-36.94043
872,1.5185547,-65.83032,71.54297,-59.2959,37.15271,-1.3959961,-6.26153,-53.989838,-37.132324
873,4.3100586,-57.969727,80.99512,-52.64258,51.479126,-1.434082,30.796963,-33.89563,-16.484863
874,-12.061768,-76.15698,63.348633,-64.13086,31.11316,-18.46289,32.069103,-39.775024,-19.015625
875,6.6381836,-66.278564,61.132812,-59.691406,27.93103,-6.4941406,10.605934,-42.277008,-26.979492
876,-5.6347656,-83.20825,59.5,-74.56738,28.798706,-6.972168,-15.709497,-58.822906,-44.652588
877,6.5820312,-67.23511,74.15527,-66.75,41.274536,-10.723145,5.3039627,-53.13623,-38.976807
878,0.28881836,-65.35278,77.10742,-61.69922,46.977783,-15.482422,34.94634,-35.7175,-16.622559
879,-8.78833,-77.61548,67.43359,-61.179688,29.431396,-14.663574,27.939583,-39.857605,-15.962158
880,-3.182129,-73.70752,72.05371,-56.14453,39.756104,-1.2177734,14.7537155,-40.202637,-22.303955
881,1.064209,-65.36865,64.08203,-66.27637,37.49292,-4.470215,1.8514633,-48.54654,-33.767334
882,1.6779785,-59.627686,61.510742,-69.81055,35.35144,-9.595703,15.14978,-42.68698,-20.442871
883,-12.694824,-72.20532,69.29785,-61.65039,39.236572,-12.864258,29.85365,-42.341187,-18.556885
884,1.0405273,-66.381836,75.67383,-49.905273,44.688477,-2.678711,21.3026,-43.255432,-23.361084
885,-3.3444824,-73.743164,66.54785,-67.15234,35.529785,-4.5664062,-1.6567268,-53.358704,-37.139404
886,-2.8596191,-70.950195,59.874023,-74.70703,31.556152,-11.992676,0.93976974,-50.02231,-30.844482
887,6.437256,-53.994873,68.17676,-57.887695,39.9209,-9.849609,28.95863,-29.332611,-9.205078
888,3.8308105,-64.864746,71.856445,-61.03125,39.12903,-13.919922,30.603428,-34.599518,-10.582275
889,5.0788574,-68.04224,75.103516,-50.14258,39.25232,-1.1689453,6.8318596,-51.473633,-33.901367
890,-4.6083984,-76.96997,62.84961,-58.210938,34.580444,2.3925781,-3.802866,-47.779877,-32.013916
891,-2.8417969,-61.84375,69.00195,-53.97754,45.901123,7.9643555,25.49807,-23.941315,-2.5917969
892,0.15625,-58.283203,66.59961,-47.84375,46.2229,0.3959961,48.237194,-14.322968,10.230225
893,3.6989746,-61.24048,71.052734,-45.51758,37.744385,-3.0986328,31.354473,-34.714417,-14.33374
894,11.409912,-55.379395,69.08789,-48.14453,30.338135,4.2998047,-9.591526,-55.5477,-39.371094
895,-8.906494,-71.233154,59.69922,-66.72754,24.58374,-6.15625,-17.83758,-64.53949,-43.598145
896,-12.689209,-66.38843,64.46582,-59.976562,35.493042,-2.918457,22.82899,-33.578827,-12.209473
897,-4.0493164,-62.77417,69.20508,-43.248047,42.188232,10.157715,44.46282,-18.113037,5.435547
898,-5.8066406,-64.976074,52.83496,-41.210938,17.95935,9.754395,-3.6931362,-52.68042,-28.581787
899,0.55737305,-62.822266,61.220703,-55.804688,25.847412,4.616699,-14.384981,-54.195587,-37.13452
900,-1.1303711,-58.384033,66.08887,-55.862305,39.95459,8.964844,13.532925,-31.310577,-12.2771
901,0.13793945,-52.998047,66.30469,-49.92285,38.200928,0.30029297,33.500973,-28.314758,-7.7487793
902,-0.82299805,-59.583008,59.566406,-49.760742,28.234497,0.70166016,20.275242,-36.90091,-19.89917
903,4.5375977,-59.07373,60.993164,-61.992188,22.466919,5.361328,-8.5612545,-60.372467,-38.072754
904,5.4821777,-51.139404,63.432617,-57.882812,31.411377,20.641602,-6.6593094,-48.307953,-21.309814
905,-3.0847168,-58.12329,64.3291,-58.30664,30.66687,11.663086,19.105896,-35.77069,-2.805664
906,2.5559082,-55.75122,72.04004,-48.0791,42.640625,8.20166,43.203243,-21.935791,6.3720703
907,4.588623,-58.07837,71.33203,-44.22461,34.385742,11.665039,17.781345,-39.505554,-14.877197
908,0.44848633,-64.308105,63.828125,-60.078125,25.600464,4.2504883,-15.639259,-58.50656,-33.86963
909,-3.5773926,-64.66455,63.444336,-71.799805,25.134155,-4.8095703,-2.1120186,-49.50009,-23.976074
910,-13.971191,-70.2771,61.624023,-70.70801,33.14453,-7.61084,25.250565,-34.919434,-9.219482
911,8.442139,-52.42163,73.31836,-50.401367,36.678467,5.430176,28.275547,-33.506256,-1.6032715
912,12.950928,-53.98584,68.07129,-51.85547,28.614258,5.4223633,-4.8935604,-51.252716,-22.49585
913,0.28979492,-60.503906,61.679688,-60.529297,29.64087,5.0625,-20.270351,-58.19803,-33.856445
914,-1.3200684,-58.09546,63.535156,-64.77539,30.592773,-9.001953,0.066230774,-54.227295,-24.979248
915,-2.9851074,-62.64209,65.40918,-53.737305,35.15271,0.030761719,24.266388,-43.400665,-6.479004
916,-4.8632812,-65.63452,60.163086,-49.73535,23.452148,1.3681641,1.7810783,-54.272522,-22.64087
917,-4.531494,-64.601074,60.226562,-53.282227,22.285034,12.224121,-21.490341,-62.072266,-35.27173
918,-10.941162,-62.30371,60.2041,-66.75098,28.412842,3.5766602,-9.515505,-52.657166,-20.334229
919,-9.193359,-62.81299,66.461914,-64.88379,38.466064,-5.3793945,19.631203,-42.283997,-6.506836
920,-12.228027,-68.308105,67.98047,-52.390625,34.95508,-4.5932617,22.749165,-45.095062,-15.191162
921,-11.645508,-71.309326,61.390625,-56.876953,30.739014,-2.1044922,-1.7474709,-59.78238,-31.895752
922,-16.811523,-77.420166,55.158203,-71.69336,25.73291,-2.621582,-17.192345,-61.45819,-38.67041
923,-7.0925293,-63.01831,71.49707,-64.37109,47.200195,9.604004,20.023777,-30.11023,-3.1748047
924,4.911133,-46.864502,76.930664,-45.240234,49.545654,14.819824,40.40108,-19.918518,13.879639
925,2.488037,-59.08716,67.85449,-50.74414,28.217285,-1.6499023,7.2317734,-53.158844,-20.468018
926,0.48754883,-61.73413,75.54004,-49.35547,42.12744,15.79834,-1.0735741,-46.887634,-19.241943
927,-9.537109,-73.933105,64.5293,-75.30859,32.0813,-5.557617,-12.32243,-54.77359,-35.65918
928,-2.0793457,-59.929443,70.08496,-67.00586,41.897217,-11.268555,15.493397,-41.829834,-15.902588
929,-5.4052734,-64.22534,68.484375,-52.78711,42.104614,-5.0825195,27.865604,-37.578857,-7.2646484
930,-14.883057,-76.117676,62.291016,-53.523438,33.519897,5.751953,-0.69418716,-50.03296,-20.374023
931,-3.571045,-63.88745,65.243164,-51.61328,39.646973,19.697754,-7.678076,-46.243805,-17.814697
932,-13.749023,-68.89014,60.03711,-66.93555,35.17932,2.6142578,-0.14503479,-46.78244,-19.134033
933,-3.2197266,-58.835938,72.40527,-48.823242,46.817627,9.407227,34.25118,-30.633362,5.4279785
934,-7.236328,-68.16699,61.450195,-51.811523,30.4729,-1.4301758,20.489342,-39.459473,-11.451904
935,6.2487793,-56.076416,70.29883,-46.030273,36.82141,14.665039,-9.280453,-48.88315,-22.79248
936,-11.665039,-76.612305,60.960938,-73.91992,31.253906,-3.4770508,-29.70085,-67.412964,-40.99341
937,-11.897217,-69.86987,66.63672,-65.19336,40.26953,-0.6591797,8.245602,-44.309204,-13.693115
938,-9.244873,-64.802246,73.71973,-47.808594,45.209106,8.859863,35.43944,-24.188171,9.562744
939,-19.389893,-81.755615,56.302734,-61.918945,31.086914,-3.724121,4.7170753,-46.56079,-21.515137
940,-9.529541,-73.37915,55.879883,-62.128906,28.793335,3.0092773,-22.096886,-59.726044,-40.473145
941,2.4260254,-58.85083,66.99219,-54.385742,41.58777,18.687988,-2.47081,-41.656372,-14.304932
942,-1.6948242,-58.50122,74.944336,-52.875,51.307617,17.40332,33.875477,-18.61258,14.8984375
943,-1.0358887,-67.19629,75.29492,-50.788086,52.36035,10.061035,39.398266,-18.97705,6.668457
944,4.010742,-67.7876,71.75,-57.836914,36.65747,6.6782227,-1.9803581,-49.370087,-27.504639
945,14.518799,-50.2229,65.61621,-60.353516,30.236206,0.65234375,-23.23108,-62.551727,-42.601074
946,15.523193,-47.29834,70.65137,-65.56641,36.73633,-4.211914,3.4859848,-45.557587,-21.629639
947,4.95459,-50.883545,68.64551,-50.865234,34.83362,1.7910156,17.095524,-38.62805,-4.2160645
948,10.6623535,-55.270752,67.85156,-46.34961,37.19397,9.84082,8.843563,-39.483246,-11.744873
949,8.975342,-57.6792,74.64746,-54.779297,47.924683,12.280762,-6.082304,-45.38687,-20.36499
950,-7.6225586,-69.16382,64.25293,-85.38379,36.69397,-12.481934,-11.421009,-49.821533,-27.550781
951,0.11303711,-55.41577,65.328125,-68.33496,34.28308,-15.520508,8.171207,-38.231903,-13.065674
952,19.429688,-39.15918,73.01758,-42.83203,33.337646,-2.2998047,16.368954,-35.862946,-7.654785
953,15.04541,-46.715332,69.99609,-42.978516,30.787476,8.565918,-15.418798,-56.00006,-31.293457
954,16.267578,-44.814697,75.50781,-42.250977,48.466797,28.066406,-9.683403,-46.942596,-19.718506
955,2.9611816,-56.31958,65.59863,-67.71094,41.118042,4.746582,2.9787369,-38.55237,-13.020752
956,1.8183594,-56.77466,75.02344,-58.572266,41.331177,-2.2685547,23.155682,-27.161072,1.5788574
957,3.1437988,-60.321777,74.09863,-55.280273,37.18286,-7.168457,7.661213,-43.158142,-16.388184
958,-0.54907227,-67.50073,60.390625,-64.7793,19.089355,-8.555176,-37.980537,-72.80005,-47.31128
959,2.9936523,-55.33838,58.109375,-67.11133,26.515503,-2.15625,-33.304527,-67.609314,-43.24951
960,3.4938965,-50.543213,74.44238,-55.48047,50.837402,7.275879,19.584309,-35.107147,-4.6347656
961,-8.902344,-64.49194,70.97656,-59.213867,49.599487,1.2236328,31.639523,-30.171997,3.104004
962,0.36376953,-58.43213,77.115234,-51.91211,46.239624,9.098633,5.7676888,-41.295197,-11.728027
963,-0.6533203,-60.047607,68.88672,-64.043945,39.257202,-0.9223633,-24.860874,-54.227753,-30.696045
964,7.0617676,-46.37915,76.299805,-63.25,47.558838,-0.46191406,-0.5819588,-40.691864,-15.305664
965,10.38623,-46.065918,79.046875,-58.121094,53.539185,-9.429199,24.397995,-31.874725,-7.958008
966,12.991943,-46.459473,82.20996,-49.868164,48.355347,0.029785156,12.697239,-44.419952,-14.867676
967,15.437012,-46.55249,79.5332,-44.939453,44.874023,9.225098,-17.426155,-55.748505,-27.802979
968,6.0810547,-55.081543,78.58887,-55.583008,52.342773,19.250977,-10.412783,-37.17108,-10.13916
969,-9.69873,-66.373535,63.90918,-69.53711,39.105957,-5.974121,6.650299,-33.77191,-6.6655273
970,-2.0393066,-59.665527,77.74414,-48.92578,49.39087,1.2167969,26.912804,-26.770721,2.868164
971,-0.7487793,-62.985596,76.89453,-50.34375,42.652588,-2.5625,-4.200697,-55.936066,-28.060547
972,-6.116455,-73.56177,67.38672,-70.93164,33.32544,-9.239258,-35.387962,-73.420105,-51.33374
973,-3.8911133,-65.85376,69.375,-71.46387,38.512695,-5.9697266,-16.050232,-56.481415,-28.998291
974,-4.479004,-60.862793,75.71777,-56.751953,50.20056,11.500488,25.51036,-18.79126,17.814697
975,-2.3935547,-61.56787,67.03027,-51.333008,33.809814,0.8911133,9.64016,-38.406097,-4.456787
976,-4.435791,-61.789307,71.86035,-51.316406,38.164062,6.6152344,-16.846226,-50.998047,-24.69165
977,-5.312744,-67.22534,73.93945,-60.626953,44.900757,9.743652,-26.532814,-57.994537,-30.364258
978,-4.789551,-63.791016,74.86914,-64.72656,47.377563,-10.465332,-3.6777153,-49.35858,-24.003662
979,-0.21777344,-61.315186,79.481445,-56.867188,48.20227,-14.495605,17.197021,-38.55606,-11.368408
980,-5.7089844,-66.1709,66.668945,-49.86035,36.06372,-1.2158203,-2.509655,-44.578735,-21.847412
981,4.2785645,-64.14551,61.98242,-56.676758,32.344604,3.321289,-32.319653,-58.050354,-34.598633
982,-0.80688477,-60.036865,72.4668,-61.22168,50.843872,2.6240234,-16.417183,-47.729004,-24.49414
983,-0.010986328,-60.06421,77.37109,-59.546875,54.114136,-6.065918,12.731873,-33.892487,-8.564941
984,1.1894531,-59.861816,77.06152,-53.237305,49.030884,-14.120117,8.238422,-40.626465,-20.04663
985,-7.310547,-75.9939,67.5166,-64.79004,31.10376,-14.830566,-30.466824,-61.201385,-41.6438
986,-1.0524902,-69.229004,56.864258,-64.90039,26.773438,-5.2055664,-47.76873,-66.33719,-43.418457
987,1.9765625,-57.136963,66.36914,-57.15625,40.187744,-1.3334961,-13.809999,-47.394867,-19.02539
988,-6.9414062,-64.83496,69.59082,-57.203125,45.437744,-6.9487305,10.590813,-33.709503,-9.577637
989,-6.6538086,-70.56494,69.53418,-54.316406,46.2312,-6.4365234,1.6546249,-46.37793,-24.035889
990,-12.538086,-78.68823,63.879883,-73.61719,37.750244,-18.03711,-35.83375,-69.70349,-54.34668
991,-5.443115,-69.589355,66.09961,-75.37402,47.186157,-9.99707,-25.964249,-57.048615,-35.786865
992,-10.541992,-70.76416,58.2334,-77.52539,34.431152,-16.194824,-14.219702,-52.188446,-20.953125
993,7.069092,-53.39038,67.49121,-51.027344,40.09485,-2.472168,11.376621,-33.242157,-7.1013184
994,-4.4819336,-64.98364,67.362305,-50.762695,33.42285,7.6225586,-19.182697,-50.39322,-21.496338
995,-10.634277,-75.255615,60.975586,-65.85547,33.792236,1.6953125,-33.39607,-60.176147,-35.733887
996,-9.668701,-69.80542,66.65039,-67.07031,49.2771,-5.5029297,-12.28957,-48.43866,-26.509033
997,-27.460693,-88.18359,61.833008,-78.17285,40.417847,-34.182617,-4.0686207,-56.932404,-36.06006
998,-4.3293457,-64.83569,82.97266,-40.657227,58.25403,1.2495117,16.530186,-29.11502,-8.019287
999,-8.399658,-72.479004,61.302734,-57.911133,32.31555,-4.647461,-33.87465,-61.451904,-39.144043
1000,-6.3203125,-63.32666,56.558594,-64.94238,26.277466,-2.668457,-40.715633,-67.86746,-43.46875
1001,7.4506836,-47.71338,62.55957,-61.683594,44.222046,-8.567871,-7.592083,-46.813934,-22.342285
1002,-3.0327148,-59.69995,65.29004,-63.124023,45.101196,-14.838379,9.406513,-37.698486,-13.198242
1003,-3.767334,-69.37378,72.833984,-65.78418,45.151733,-15.928711,-11.316383,-49.89096,-32.168457
1004,2.5393066,-58.586426,71.28711,-61.978516,43.423462,-5.430664,-33.48988,-59.49588,-44.31372
1005,3.680664,-56.015625,66.918945,-60.28125,45.055176,-1.7353516,-17.610336,-48.725494,-28.48706
1006,-0.7915039,-55.95752,67.7334,-55.274414,42.25305,-6.5219727,4.569973,-37.724396,-11.456787
1007,5.048828,-50.101562,67.9043,-48.206055,40.98584,-7.1313477,3.6450958,-38.151978,-10.3063965
1008,-4.1467285,-66.703125,61.041016,-69.67383,35.30066,-12.327148,-29.234488,-60.817505,-42.038574
1009,-11.560791,-72.118164,58.50586,-83.37402,32.108154,-15.581055,-44.60765,-71.978,-51.01367
1010,-16.644043,-72.21753,62.907227,-77.91992,39.36316,-10.375488,-16.650064,-49.26126,-23.52417
1011,-1.5144043,-60.202393,77.77539,-49.597656,52.683716,-0.16601562,20.243744,-26.04425,-0.9719238
1012,-10.932373,-75.57373,58.73047,-63.706055,36.812256,-14.837891,-17.180338,-51.816895,-30.267334
1013,-5.927246,-67.15991,61.541016,-66.293945,41.193726,-4.595215,-31.996826,-54.12265,-40.458984
1014,-10.08252,-69.3562,60.26172,-80.50879,37.016113,-20.107422,-31.539078,-60.57675,-43.174072
1015,-19.886963,-79.333496,61.470703,-77.9668,42.81543,-22.333008,-4.3224335,-47.860565,-24.970947
1016,-7.254883,-63.41504,64.171875,-57.15625,37.689697,-10.358398,-2.2225113,-44.82544,-22.10205
1017,-7.0844727,-67.17798,51.46289,-67.69336,25.859985,-16.037598,-32.27891,-63.047943,-42.07007
1018,1.0354004,-62.651123,63.810547,-66.56348,44.829956,-6.6030273,-30.793118,-54.024994,-37.499023
1019,-12.2109375,-67.67651,61.847656,-74.81152,41.84546,-20.523438,-20.61451,-52.28351,-31.81128
1020,-16.067627,-73.623535,61.41797,-82.44531,35.74243,-37.47998,-6.4779663,-55.332916,-32.002197
1021,-7.6103516,-64.41968,59.739258,-65.00391,35.104126,-19.294922,-17.655579,-56.78485,-37.686523
1022,-9.255615,-70.68823,53.884766,-62.844727,29.715576,-13.191895,-44.935673,-68.65872,-50.30664
1023,-11.109131,-69.83374,64.740234,-68.956055,40.104126,-12.55127,-37.058975,-61.76596,-43.041992
1024,1.7067871,-50.10083,79.11133,-48.819336,56.68091,-3.046875,4.7110443,-34.168884,-10.904541
1025,-7.838379,-65.71094,67.81641,-67.83887,44.614136,-23.679688,3.0848312,-39.679504,-24.360596
1026,-4.3691406,-64.36572,63.478516,-67.12305,39.93799,-20.005371,-21.566866,-55.076447,-44.633545
1027,-9.279541,-66.05762,48.810547,-71.95215,30.42749,-17.202637,-49.062675,-66.45303,-51.389893
1028,-13.4938965,-68.67969,60.2041,-79.09082,50.099487,-20.82129,-18.250856,-47.10376,-30.414307
1029,0.3005371,-49.993652,71.56738,-56.03125,63.318848,-7.76709,20.044388,-21.575073,-0.94921875
1030,-2.4311523,-62.098633,64.57422,-64.03418,41.645508,-22.608398,-4.0140877,-45.647278,-24.999268
1031,-0.51342773,-61.01758,69.10449,-64.59082,41.03418,-11.361816,-33.679108,-57.30664,-45.1687
1032,-5.307617,-63.731445,56.78418,-78.916016,27.055786,-22.223633,-54.74341,-74.23627,-59.450195
1033,7.0161133,-41.873535,67.38574,-62.01758,43.98181,-14.621094,-14.900959,-46.749725,-29.64038
1034,-6.504883,-61.902588,66.15527,-71.73242,37.82263,-26.060547,-9.053301,-50.71054,-24.468994
1035,-11.698975,-72.44849,64.87891,-73.46289,33.53955,-30.135742,-31.926823,-61.713165,-43.69287
1036,-2.3620605,-62.092285,66.98633,-67.80859,39.327026,-18.346191,-43.49494,-62.410797,-49.38916
1037,-3.2438965,-59.37964,67.58789,-71.64844,46.15088,-21.763672,-22.599651,-53.022003,-40.24292
1038,-6.031006,-59.23413,65.7334,-64.21484,39.48474,-20.836426,-5.3691406,-45.065247,-25.10498
1039,-13.942383,-67.16455,56.348633,-64.237305,27.173462,-33.273926,-20.586414,-59.816498,-41.578125
1040,-10.015137,-68.565186,57.131836,-59.899414,30.628662,-17.466797,-40.208294,-65.42996,-49.597412
1041,-14.800293,-68.95996,51.58789,-63.356445,36.041748,-16.19873,-41.389328,-57.370575,-50.640625
1042,-8.05835,-56.640625,67.96484,-52.95215,45.106445,-9.628418,-7.837528,-33.570007,-16.177246
1043,-6.183838,-56.77539,61.601562,-51.05957,38.77368,-19.524902,0.83395004,-35.706055,-18.771729
1044,5.8066406,-52.433594,68.08301,-44.780273,40.97046,-9.453125,-4.863821,-38.96402,-23.763916
1045,-8.060791,-68.64307,55.841797,-52.811523,34.094116,-7.904297,-35.45755,-52.566406,-45.220703
1046,-6.7509766,-58.97339,59.87207,-57.61035,40.2146,-5.84375,-27.239912,-49.15793,-34.665283
1047,2.80542,-48.323975,75.23242,-49.11035,52.326904,-2.4936523,9.558334,-25.590576,-6.1584473
1048,-4.0546875,-59.01465,63.041016,-46.10742,47.566406,-7.25,8.481712,-24.60907,-11.563965
1049,1.177002,-58.472168,56.850586,-56.041016,33.09424,-9.233887,-26.670124,-42.09784,-34.328125
1050,-0.05102539,-57.50415,59.97754,-64.60742,41.455933,-12.1015625,-39.15272,-47.328156,-42.610596
1051,1.7045898,-53.48584,76.163086,-60.82422,53.275146,-12.629395,-16.90614,-39.46588,-28.16748
1052,-6.69751,-62.879883,67.49512,-55.458984,43.577637,-19.262695,0.32304382,-33.25882,-18.87378
1053,-4.8847656,-68.12866,67.81348,-47.95703,41.074097,-15.076172,-14.112539,-47.094147,-32.591797
1054,-6.45459,-72.3562,54.720703,-63.206055,30.444824,-25.115234,-55.295395,-71.23761,-62.25952
1055,-8.312744,-64.720215,58.65039,-65.76367,31.811768,-20.09375,-50.455894,-65.246704,-55.259277
1056,-6.3103027,-57.69922,70.82422,-60.717773,45.166504,-33.3208,-20.86967,-52.979187,-41.4104
1057,9.027588,-45.6167,73.11035,-38.53125,48.348877,-23.35205,-3.8614407,-38.43921,-30.696533
1058,-10.840576,-68.062744,56.27246,-61.4834,25.338623,-40.628418,-53.95984,-76.02438,-68.07544
1059,1.1242676,-54.203857,64.978516,-54.194336,34.38379,-23.700684,-67.73626,-78.089874,-67.57495
1060,-2.7910156,-56.680176,59.80078,-60.364258,34.236206,-31.070312,-51.707485,-67.64035,-61.396484
1061,-10.325439,-69.00464,70.00293,-56.881836,40.874146,-34.245605,-15.192595,-47.059326,-38.417725
1062,-13.563721,-76.951416,65.2168,-62.296875,33.828003,-44.73047,-29.60226,-62.210846,-58.19336
1063,-4.2504883,-69.50708,65.575195,-60.489258,30.636108,-37.265137,-62.25494,-78.0152,-75.454346
1064,4.679199,-58.99951,72.0918,-57.435547,37.410645,-29.056152,-55.840763,-69.15018,-66.0542
1065,14.091553,-41.685303,71.24609,-47.63379,48.706543,-23.320312,-24.458935,-47.56015,-39.210938
1066,-3.7497559,-60.3584,59.996094,-61.51953,30.599976,-46.918457,-21.077648,-59.32663,-50.593506
1067,6.8671875,-53.589355,69.02832,-47.59668,33.041138,-29.548828,-35.53344,-59.723267,-55.412354
1068,9.3984375,-48.798584,73.930664,-54.90039,39.12732,-24.141602,-49.500885,-63.365784,-60.734863
1069,8.560059,-47.381104,65.57715,-65.81738,36.71228,-35.868164,-46.359364,-65.124146,-62.532227
1070,2.3100586,-48.974365,70.93652,-59.249023,39.513428,-40.45459,-21.989616,-54.780243,-47.720215
1071,16.90503,-44.552734,70.18262,-48.29883,32.417236,-35.3833,-27.052677,-57.69571,-50.169678
1072,16.807129,-44.449707,76.13672,-43.53125,31.920532,-24.083008,-46.019142,-65.76883,-58.458984
1073,4.925293,-49.398926,59.88965,-61.248047,27.27063,-34.776367,-61.508133,-76.1214,-68.69556
1074,-1.6079102,-56.87915,60.216797,-69.90234,35.337524,-43.64453,-33.83872,-61.35434,-53.740967
1075,9.441895,-44.42212,74.984375,-52.935547,45.377686,-37.791992,-7.5107822,-45.30301,-36.361816
1076,15.635498,-36.262695,77.76074,-30.95996,46.022705,-20.827637,-18.314074,-45.739807,-39.626465
1077,-9.34668,-70.82349,51.39258,-67.63086,17.814331,-39.345215,-64.058685,-81.12247,-79.4375
1078,8.812988,-41.978516,69.5332,-43.271484,51.592773,-8.706543,-27.363794,-41.384735,-41.080322
1079,1.2504883,-47.909668,67.37793,-49.25586,42.174805,-29.31543,-14.807533,-45.328583,-40.97461
1080,6.1796875,-46.310303,71.49805,-36.378906,42.653442,-22.331543,-8.413805,-40.363342,-36.50244
1081,11.231934,-46.851562,69.94824,-42.01465,45.031128,-23.578613,-33.132076,-55.4722,-58.18506
1082,0.6125488,-58.011963,62.006836,-62.271484,25.506958,-36.09619,-65.96132,-83.12756,-80.86743
1083,13.019531,-41.910645,62.445312,-48.06836,46.310425,-21.463867,-20.204807,-43.71518,-40.47876
1084,0.4868164,-50.601074,63.64258,-37.384766,43.965454,-21.640137,-0.5273819,-36.010773,-27.63208
1085,3.3132324,-53.839355,73.04297,-32.311523,47.73999,-20.08789,-10.674635,-44.85382,-40.07666
1086,-15.549805,-71.230225,50.512695,-61.70117,26.357422,-38.86133,-64.34221,-84.882385,-85.13721
1087,-8.941406,-65.15381,65.13379,-60.84961,37.14673,-31.728516,-54.05352,-68.79996,-69.23169
1088,-7.645996,-57.37964,65.39844,-56.688477,40.70398,-38.899902,-27.420666,-58.05011,-51.481445
1089,1.9675293,-53.18286,71.57617,-44.929688,40.83789,-32.103027,-20.110626,-50.04648,-43.766113
1090,-4.095459,-65.53003,61.86035,-45.174805,33.676147,-25.982422,-43.659325,-66.30188,-65.78589
1091,-13.628906,-74.561035,62.54004,-49.03125,38.400757,-23.944336,-59.339256,-72.02533,-77.177246
1092,-19.099854,-75.778564,71.82324,-54.68457,44.40381,-31.523438,-35.23283,-64.125,-61.35913
1093,-20.710205,-77.89087,75.33496,-53.67871,46.600586,-38.67627,-8.628698,-47.4151,-44.82251
1094,-18.376953,-74.83276,68.081055,-56.686523,41.76306,-45.348145,-26.332195,-59.390015,-59.933105
1095,-1.6618652,-65.4668,78.81738,-54.325195,50.08667,-30.70166,-43.49778,-65.34088,-65.25171
1096,-3.102539,-63.30078,63.317383,-60.927734,35.079834,-32.13965,-60.767166,-73.45178,-75.1875
1097,-6.7072754,-61.70508,69.006836,-59.96582,45.107788,-35.53955,-24.27565,-53.02417,-51.627686
1098,-10.145264,-71.76123,70.680664,-54.45508,45.336792,-34.84668,-4.121914,-43.00836,-40.91211
1099,-12.706299,-76.3125,71.06152,-48.780273,45.01111,-27.634277,-26.216373,-54.029694,-57.63794
1100,-13.734375,-74.93872,61.10547,-61.879883,40.19153,-30.025879,-56.984497,-71.25665,-78.503174
1101,-21.40747,-78.086914,53.479492,-78.637695,30.132568,-52.24756,-62.305298,-83.36725,-88.926025
1102,-2.699707,-55.17627,69.96289,-53.374023,44.193237,-36.808594,-24.43715,-54.21472,-54.437256
1103,-17.822998,-74.159424,59.649414,-47.683594,36.60486,-37.15674,-24.344366,-55.88681,-56.776855
1104,-18.780762,-75.3103,55.808594,-54.003906,29.416992,-32.144043,-53.54972,-73.97467,-74.90088
1105,-18.841553,-77.96362,50.907227,-65.67969,33.65271,-33.92041,-62.955822,-74.38864,-77.12964
1106,-12.983398,-66.379395,62.11328,-60.07715,35.776855,-38.30713,-37.275707,-59.704285,-61.405273
1107,-10.297363,-65.50049,61.80957,-51.007812,36.321655,-30.087402,-19.742895,-42.693085,-43.51465
1108,7.21875,-57.004395,75.78613,-39.62207,46.60327,-20.61914,-22.165031,-41.892334,-46.39453
1109,-7.8310547,-71.75415,54.17285,-63.064453,33.527832,-35.734375,-67.9525,-78.10693,-86.052734
1110,-3.0471191,-62.70117,62.785156,-60.177734,40.11023,-30.086914,-46.9937,-55.477905,-65.39331
1111,3.6984863,-51.02539,75.70703,-44.36621,55.879883,-27.421387,-6.796318,-38.208466,-41.22339
1112,-4.317627,-66.88599,68.11719,-53.22168,40.49536,-38.612793,-21.222618,-55.242462,-56.522217
1113,-14.969727,-77.3811,59.57617,-60.2666,32.24402,-48.083008,-59.281456,-78.129456,-86.110596
1114,-5.8847656,-65.61792,62.612305,-60.569336,40.40686,-31.89746,-59.4812,-76.13345,-83.4624
1115,-13.6467285,-66.055664,52.98535,-66.2334,42.670044,-40.9917,-37.06954,-62.196136,-66.0083
1116,-9.670654,-58.89795,62.304688,-48.918945,48.441162,-26.754395,-4.643797,-40.258667,-39.090332
1117,-11.954102,-66.06299,55.23828,-48.817383,35.444336,-35.449707,-29.128239,-56.82846,-61.138184
1118,4.720703,-50.788574,66.96094,-40.25293,42.83667,-20.766602,-49.43136,-63.63675,-73.98218
1119,6.2458496,-51.834473,59.814453,-52.206055,37.797363,-31.303223,-62.564987,-75.461395,-82.29614
1120,6.023926,-50.148438,64.99219,-41.40918,57.51172,-20.249512,-6.027212,-39.744965,-41.094482
1121,3.9970703,-48.149902,74.39844,-33.28711,59.44934,-22.832031,6.2795067,-26.948029,-34.91089
1122,-2.488037,-66.32861,59.573242,-46.055664,42.485474,-28.400879,-30.42978,-56.443115,-65.724365
1123,1.7543945,-58.547607,60.179688,-54.36133,46.06189,-28.396484,-52.291195,-66.00647,-76.25195
1124,-11.719727,-70.22827,46.685547,-74.12988,40.006104,-50.63672,-44.30042,-66.40497,-78.20239
1125,5.875,-48.620605,61.271484,-39.80957,50.56311,-24.31543,1.1588287,-30.270905,-35.45117
1126,4.1467285,-53.561035,59.813477,-34.624023,47.66028,-24.76416,-13.755669,-41.729767,-46.110107
1127,0.89575195,-60.08423,46.23047,-44.04883,32.650146,-33.708984,-56.198364,-71.56253,-82.22925
1128,-3.0107422,-62.19409,45.458008,-52.782227,34.913452,-32.652832,-56.83383,-67.420044,-76.772705
1129,0.061279297,-54.929688,57.739258,-44.984375,44.46399,-30.319336,-24.025272,-47.96472,-55.37549
1130,9.499756,-48.99829,55.17285,-41.291016,42.048462,-36.80371,-10.283096,-44.084015,-45.61206
1131,14.428711,-46.733154,52.8291,-32.314453,37.86853,-25.831543,-23.442184,-50.567688,-60.256104
1132,1.7263184,-55.541992,49.23828,-51.648438,33.913574,-32.283203,-53.53609,-69.08942,-81.870605
1133,-11.376953,-66.67749,52.956055,-60.88965,39.15979,-38.2334,-45.659668,-68.122986,-77.480225
1134,-10.192627,-62.975586,52.831055,-54.271484,47.03723,-46.746582,-14.096212,-47.96808,-54.75586
1135,-0.67944336,-56.52295,64.51953,-31.422852,47.088623,-30.96875,-12.583134,-47.667572,-53.22534
1136,-2.7836914,-62.029785,44.694336,-37.023438,29.022217,-34.645996,-53.067154,-71.38919,-79.769775
1137,2.9179688,-56.777832,55.82715,-41.319336,48.88806,-25.237793,-49.65064,-65.11792,-75.41431
1138,-12.7092285,-71.840576,53.463867,-49.246094,49.559692,-41.436523,-23.909273,-52.615295,-65.21704
1139,-7.3310547,-66.36597,66.828125,-40.17285,50.780273,-36.03125,-5.450842,-38.375275,-43.535156
1140,-1.355957,-66.18823,59.257812,-35.104492,40.759155,-35.538086,-25.754257,-52.50418,-60.933594
1141,-1.0388184,-64.47949,60.00586,-41.899414,41.29297,-32.665527,-53.93322,-68.43594,-80.46924
1142,7.0285645,-53.520508,54.450195,-42.945312,40.44629,-28.499023,-44.73333,-58.84134,-70.721924
1143,2.9882812,-51.421143,69.56055,-33.958008,52.003906,-30.463867,-11.429934,-39.22586,-48.05005
1144,-5.007324,-63.20996,70.0332,-30.297852,50.572388,-28.918457,-9.175352,-42.002075,-53.358643
1145,-0.82006836,-68.86865,62.336914,-37.086914,39.28894,-33.164062,-43.652657,-65.60666,-82.17212
1146,-1.5708008,-59.97168,57.83203,-42.124023,36.894043,-30.374023,-60.19301,-69.93088,-89.763916
1147,2.0141602,-59.202637,55.433594,-46.776367,37.970825,-36.166016,-37.35976,-54.175873,-69.826904
1148,-8.5859375,-64.35132,56.69336,-37.28418,36.125977,-33.609375,-15.855238,-42.088165,-52.313477
1149,-6.0649414,-68.78735,60.20117,-35.038086,45.715454,-30.942871,-19.297958,-49.50412,-62.487305
1150,-13.57666,-81.66382,49.768555,-47.719727,34.827515,-36.074707,-53.29312,-67.04297,-84.1311
1151,-2.1413574,-66.616455,63.211914,-43.58008,42.7854,-32.77295,-47.813133,-54.611053,-78.218506
1152,-9.452881,-66.43384,59.46582,-46.09668,42.340088,-41.600586,-21.123852,-45.784393,-61.642334
1153,-3.119629,-64.372314,59.089844,-30.22754,47.67163,-29.497559,-8.301884,-37.050476,-47.259277
1154,-3.380371,-68.81177,60.88672,-33.63086,41.19397,-25.588867,-34.52798,-50.303497,-66.992676
1155,-8.565918,-74.124756,62.257812,-40.49707,49.028564,-27.5083,-48.11447,-57.07138,-75.68945
1156,-11.338623,-70.85693,54.49707,-50.842773,38.91736,-39.61621,-49.285046,-64.77634,-78.90723
1157,-1.5080566,-58.476807,69.11133,-26.519531,50.13318,-30.001465,-10.774881,-39.78894,-49.388916
1158,1.7009277,-64.95752,64.2793,-22.512695,47.569336,-28.212402,-18.288462,-45.90396,-57.949707
1159,0.50878906,-67.82837,58.43457,-26.654297,42.76953,-30.842773,-48.421417,-61.477875,-83.105225
1160,-7.616699,-70.93042,51.981445,-44.567383,33.66919,-35.14795,-62.299934,-69.20581,-93.77026
1161,-9.884766,-69.1687,64.39746,-46.615234,52.661743,-39.22119,-24.870287,-48.102142,-64.717285
1162,-10.3359375,-66.48071,64.25586,-33.129883,50.694336,-39.842773,-10.085159,-44.039978,-58.854736
1163,-9.119873,-74.056885,48.993164,-42.458008,33.77295,-45.8916,-43.001457,-62.566895,-84.648926
1164,-11.897949,-72.29126,42.728516,-45.49707,31.61499,-41.780273,-62.85845,-70.80377,-90.781494
1165,-14.222656,-72.034424,52.069336,-39.19922,45.294067,-32.145996,-42.364647,-56.646362,-74.87012
1166,-12.048584,-63.49951,63.94922,-26.498047,51.756958,-27.063477,-7.946245,-33.78839,-50.591553
1167,-12.644287,-73.343506,60.054688,-33.731445,40.64453,-43.835938,-17.847603,-46.59366,-63.455322
1168,-14.331055,-78.72168,50.543945,-41.06836,27.02124,-43.14209,-59.180325,-71.973724,-91.86865
1169,-0.8720703,-64.55151,60.6709,-33.60254,40.039185,-31.849121,-58.474117,-71.20526,-86.33301
1170,-16.318848,-78.364746,50.344727,-50.936523,32.218994,-52.800293,-47.636585,-68.64673,-80.667725
1171,-5.037842,-67.95776,59.739258,-26.81543,36.535767,-44.29541,-22.224056,-46.603333,-59.974854
1172,-1.451416,-68.69092,62.961914,-22.365234,39.22473,-33.861816,-32.63587,-51.946686,-68.67871
1173,-5.505615,-73.56299,58.453125,-36.90625,36.401,-38.618164,-63.25756,-71.97269,-90.241455
1174,-14.042969,-77.00952,59.1416,-45.200195,42.87036,-47.396484,-54.093067,-71.66089,-87.70508
1175,-35.74121,-91.03955,47.34375,-56.44922,40.276123,-58.478516,-21.990826,-51.53409,-67.18677
1176,-15.689453,-75.59033,52.666016,-29.401367,37.312866,-40.740234,-15.630886,-39.118744,-52.901123
1177,-21.197754,-88.15527,52.597656,-32.759766,31.355713,-49.24121,-57.314316,-69.950836,-89.427734
1178,-8.772949,-76.99829,62.725586,-37.14746,32.055542,-44.865234,-68.947525,-75.35922,-93.80371
1179,-8.981689,-68.95068,65.48047,-41.14453,41.375366,-49.84326,-39.3545,-59.403717,-74.80322
1180,-21.27417,-82.59595,59.125,-32.40918,48.7688,-49.175293,-9.452372,-38.545105,-55.026367
1181,-16.08374,-74.76636,49.878906,-24.206055,28.468506,-50.441895,-34.73992,-58.72827,-77.22485
1182,-6.0429688,-70.41211,46.61914,-22.049805,24.708374,-38.263184,-64.57943,-71.26822,-90.80469
1183,-8.442383,-71.34253,57.640625,-33.76758,30.087158,-45.00586,-61.90763,-70.368805,-90.75342
1184,-16.679443,-71.616455,61.945312,-39.936523,35.312866,-55.527344,-34.156143,-56.48575,-73.83667
1185,-19.099121,-82.95117,58.728516,-32.27832,30.41455,-56.04883,-29.263597,-55.36786,-74.1687
1186,-10.391602,-73.69556,58.60742,-25.411133,26.095703,-46.322266,-45.296776,-65.231476,-85.88501
1187,-20.180664,-83.9043,42.01465,-39.242188,15.58728,-49.546387,-76.38848,-79.50113,-103.3374
1188,-9.522461,-65.78906,39.512695,-38.90332,14.903931,-55.558105,-65.696175,-71.00253,-89.70166
1189,-3.8845215,-59.960205,48.927734,-25.848633,27.73352,-46.154297,-33.473186,-50.54065,-63.03247
1190,-9.006836,-70.23291,55.01758,-26.711914,23.639282,-60.76465,-48.031685,-69.651,-92.48364
1191,-16.68872,-83.09326,49.01172,-39.240234,16.951416,-60.350586,-70.179504,-82.2511,-107.87158
1192,-7.279541,-66.57056,66.57422,-30.194336,38.40503,-32.67578,-51.97664,-54.511475,-77.31372
1193,-27.398926,-85.448975,45.396484,-49.106445,16.366577,-65.29248,-52.373394,-70.927124,-86.29639
1194,-11.756348,-70.38086,61.8916,-26.33496,28.583984,-54.745117,-26.014202,-53.6131,-69.846924
1195,-12.763672,-74.04175,52.012695,-25.170898,28.03772,-43.293945,-46.920673,-66.27893,-86.194824
1196,-15.342285,-72.673096,47.289062,-37.427734,23.071167,-44.640137,-73.51982,-72.5394,-97.4021
1197,-18.921875,-75.07764,46.069336,-43.828125,21.540161,-58.09424,-68.5982,-72.177734,-92.70117
1198,-13.465332,-67.783936,57.913086,-29.265625,35.0614,-55.444824,-27.011053,-48.577515,-67.258545
1199,-17.290527,-75.803955,53.08789,-30.638672,28.910034,-62.453613,-26.178596,-53.191925,-74.44971
1200,-14.102783,-74.35156,57.001953,-34.280273,24.296265,-59.956543,-60.01478,-72.18277,-100.5874
1201,3.0654297,-63.20166,63.591797,-27.052734,33.463623,-44.708496,-72.55823,-73.91998,-98.84985
1202,-3.9785156,-61.52661,59.161133,-28.811523,28.268433,-53.927246,-53.69944,-66.11792,-86.6875
1203,-12.143799,-68.99414,58.331055,-27.92871,30.328125,-56.848633,-22.276897,-44.75525,-67.0249
1204,4.734375,-62.38916,67.06738,-13.139648,37.0979,-44.63916,-29.502522,-49.322723,-73.12573
1205,-1.3276367,-70.59424,58.27539,-25.393555,24.610718,-43.370117,-65.83618,-67.7897,-93.506836
1206,0.42822266,-59.861084,59.007812,-32.06543,31.261963,-45.83203,-54.247746,-58.90686,-82.15845
1207,7.0161133,-48.506348,60.55957,-26.729492,32.930786,-48.47705,-23.554192,-38.67621,-62.46411
1208,13.182129,-50.03784,58.256836,-19.72754,24.829834,-50.066895,-29.694073,-45.998596,-62.62793
1209,4.387451,-61.071777,61.463867,-23.09668,27.875977,-43.35791,-48.08866,-57.08017,-79.44824
1210,-1.9575195,-62.604492,58.753906,-34.500977,33.035522,-40.728027,-61.86665,-59.414032,-83.42383
1211,-12.982666,-67.77124,53.098633,-50.481445,23.79663,-56.163086,-54.84572,-62.58261,-81.55859
1212,-6.9726562,-61.016846,64.328125,-39.4834,35.607544,-51.256836,-18.034723,-38.089996,-54.5437
1213,0.2854004,-62.364746,64.541016,-33.333008,33.04773,-43.134766,-29.134453,-47.889404,-69.288086
1214,-5.4797363,-68.03931,49.09668,-43.92578,8.713135,-47.916504,-73.60715,-75.748566,-103.159424
1215,4.789795,-54.23169,62.01172,-41.15039,32.152344,-36.052734,-55.35508,-54.61618,-79.04346
1216,2.1899414,-51.82495,71.66992,-46.07422,37.352295,-53.393066,-26.023338,-45.01297,-65.91138
1217,-7.5007324,-63.26587,62.35254,-47.848633,30.080933,-62.23877,-23.878828,-46.604126,-68.43164
1218,1.7617188,-58.640137,72.29883,-39.989258,34.336548,-46.949707,-42.92911,-57.06009,-81.03052
1219,1.7370605,-59.239502,55.82422,-52.69629,22.161621,-52.015137,-68.58446,-73.62579,-100.33081
1220,0.9013672,-60.388916,62.680664,-49.44922,28.925537,-54.87207,-52.01339,-61.684357,-83.04321
1221,5.82959,-54.03833,76.94824,-32.55957,41.441772,-45.07129,-14.600891,-34.74301,-51.541748
1222,4.7578125,-60.155518,67.30664,-26.386719,35.75647,-41.61914,-24.594727,-40.15091,-58.745605
1223,2.0839844,-68.26416,59.25879,-35.561523,19.839233,-51.435547,-68.35811,-72.81021,-95.552
1224,7.8566895,-50.4021,57.84961,-26.111328,28.06958,-36.77002,-62.04382,-62.33377,-88.67456
1225,11.731445,-37.940674,73.56152,-8.302734,47.69104,-23.96582,-15.419798,-24.072418,-46.588135
1226,4.557373,-50.384277,70.23242,-14.552734,38.876343,-38.430664,-3.97295,-27.459045,-48.31079
1227,9.415527,-48.0979,66.50781,-5.696289,38.049927,-25.731445,-25.71737,-35.519653,-58.91992
1228,-0.0075683594,-61.519287,61.399414,-22.251953,31.39917,-34.416992,-65.94844,-57.33023,-81.89258
1229,-12.942627,-71.75073,53.683594,-37.25879,32.388794,-45.961426,-45.877872,-47.407867,-70.421875
1230,16.864014,-40.203125,80.40137,-1.9013672,57.146606,-24.773926,8.53952,-7.016571,-26.71875
1231,11.782227,-46.098633,80.49121,6.0566406,58.289673,-27.566406,6.1574097,-13.870697,-34.881104
1232,-3.4450684,-64.17847,67.47363,-14.120117,41.43933,-34.18506,-39.312027,-48.6391,-70.948
1233,-3.7341309,-63.99585,68.56348,-22.0,48.64673,-30.54248,-41.819992,-42.495117,-68.82788
1234,-16.790771,-71.66724,59.911133,-29.629883,40.782715,-45.597168,-27.589413,-31.710663,-56.916748
1235,-2.1711426,-59.776123,71.4375,-10.25293,47.516846,-35.765137,-0.73696136,-16.03534,-36.754395
1236,-7.4526367,-70.22998,68.99805,-13.313477,41.368652,-40.5542,-19.660538,-33.58026,-65.2793
1237,-7.327881,-76.97095,62.38379,-28.810547,36.343994,-47.793945,-45.312885,-53.263306,-89.84448
1238,-13.491699,-71.73682,56.072266,-28.408203,30.562378,-51.68506,-45.071842,-46.163147,-77.37085
1239,-15.168457,-69.43848,54.402344,-24.032227,24.689331,-50.65088,-21.320019,-34.52716,-52.883057
1240,-5.975342,-62.370605,65.87695,-9.541016,28.964355,-42.776855,-18.492853,-31.230103,-53.120605
1241,-10.711914,-72.83301,60.552734,-12.592773,29.959839,-40.007812,-40.66733,-41.040985,-70.50635
1242,-6.85376,-74.00073,69.00781,-23.054688,46.390503,-34.507812,-35.031883,-30.720795,-65.40137
1243,-16.432617,-76.09595,64.899414,-28.46582,42.243774,-44.543945,-15.942066,-20.620789,-54.15674
1244,-14.714111,-67.85742,65.42871,-19.735352,40.805542,-44.808105,-1.9306526,-21.336273,-49.799072
1245,-16.087158,-75.64136,60.591797,-13.671875,32.705933,-39.512695,-20.983685,-28.409973,-60.266846
1246,-6.65625,-69.22168,61.551758,-21.28711,33.581665,-33.354004,-38.964085,-36.851074,-73.1604
1247,-15.35498,-75.06152,50.86328,-39.588867,20.85205,-41.698242,-50.390545,-42.896545,-74.38257
1248,33.12329,-28.821533,65.34668,-15.3828125,40.104614,-35.430176,-12.362604,-23.209686,-48.819824
1249,47.008057,-17.59668,72.134766,-1.4335938,45.654907,-30.123535,1.7159386,-15.846924,-42.226074
1250,75.49072,1.7670898,80.737305,4.598633,47.090088,-19.86621,-12.429056,-21.343384,-54.9187
1251,100.93628,25.90747,79.13672,5.041992,54.246216,-10.520508,-31.073069,-25.577667,-63.228516
1252,116.573975,42.892334,90.89551,-0.6435547,65.94885,-14.975098,-7.4793663,-9.089081,-41.671143
1253,127.7688,60.47046,86.97461,10.592773,56.70349,-22.253418,16.162315,2.9234924,-29.696533
1254,155.4895,78.04224,89.47168,25.535156,56.120483,-6.783203,14.726059,7.6212463,-24.085693
1255,154.06519,66.88257,80.225586,13.5,46.779175,-5.9414062,-30.489355,-23.699799,-52.436035
1256,166.67139,75.53638,85.677734,-0.3701172,50.438354,-19.681152,-40.309082,-37.223907,-70.05005
1257,185.52954,102.65381,101.131836,12.383789,72.08557,-16.098633,9.3975525,-3.1562805,-34.09326
1258,188.23315,94.2251,98.46484,17.865234,64.30493,-22.33252,16.62529,-4.5934753,-33.692627
