sample,FP1,FP2,T7,T8,P7,P8,O1,Oz,O2
0,144.66748,25.880371,166.11426,0.43847656,86.14819,74.52783,131.64807,42.83145,83.7478
1,146.06128,24.548584,157.69922,4.7773438,73.9458,70.64746,120.5768,32.09082,77.42285
2,152.19824,39.198486,163.20605,17.891602,82.05774,83.90625,91.99425,15.201447,50.253906
3,149.78174,32.01294,158.7627,-5.131836,66.1897,55.63867,51.65228,-23.532837,4.6047363
4,154.73218,44.239014,162.42871,2.8339844,77.220215,45.549316,89.84868,-5.9143066,29.443115
5,142.33398,32.048096,170.96777,14.299805,94.78259,73.427246,142.67242,38.438873,79.586426
6,146.87085,34.10034,169.21875,26.177734,86.083496,87.37158,125.12869,35.5878,80.28369
7,131.94238,11.684082,164.07129,1.8447266,83.72278,81.086914,90.364,17.732178,56.796387
8,137.42676,22.89209,165.02734,-5.892578,79.49194,64.51709,79.6754,3.0143127,39.42627
9,134.4231,25.517578,163.7539,-3.8623047,79.9884,47.67871,99.725586,3.1663513,41.208496
10,150.28247,35.277832,167.59082,7.4208984,80.50806,49.308105,115.424545,10.077393,42.628662
11,147.30298,28.140625,166.73145,17.714844,86.37671,75.81543,109.91435,20.644714,53.713623
12,150.02173,25.26416,161.9541,-5.2783203,80.4823,77.45166,87.14136,13.594086,51.132324
13,130.70264,6.225586,158.01172,-21.921875,80.08374,61.03369,98.716644,12.756073,54.297607
14,141.70532,20.126953,168.07422,-4.9228516,85.72644,57.13623,112.96571,15.221405,60.525635
15,152.15576,15.930664,168.35547,-0.0048828125,80.63867,65.498535,96.65637,3.0015564,44.72168
16,143.27881,-0.6669922,157.14746,-17.35254,77.52405,50.895508,84.0974,-3.8416748,20.92627
17,147.43018,6.6015625,160.07715,-22.726562,77.91284,53.777832,91.89427,12.537079,36.33667
18,142.2937,8.587891,170.85352,-13.394531,88.85718,55.77881,115.16449,27.233612,65.765625
19,160.29834,15.597412,174.25684,-6.826172,78.78491,56.914062,103.453445,6.074463,56.770508
20,149.67969,-6.9125977,157.06934,-21.832031,53.831787,47.828613,58.14828,-25.0195,17.326416
21,150.17456,-11.72998,153.3584,-30.323242,61.967896,45.140137,54.656017,-25.186829,7.890869
22,146.82495,-9.548828,168.59082,-33.75,82.578125,39.262207,92.477005,5.1868896,31.378174
23,142.76562,-8.844482,166.77637,-37.683594,73.154175,29.20996,109.25157,11.217407,41.198486
24,141.44092,-18.634033,164.28125,-36.26953,66.520874,35.768066,88.8929,-6.019226,34.113525
25,149.10156,-9.64917,163.01953,-25.768555,57.35913,53.8833,46.397366,-31.037323,16.285156
26,138.58008,-20.261963,158.35254,-47.195312,52.122925,39.021484,37.0154,-40.7453,2.0700684
27,144.7185,-12.341309,173.10352,-40.93164,69.86536,39.188477,92.04588,1.1088257,35.928955
28,148.91406,-12.5061035,170.55273,-40.86133,71.74402,21.532715,117.06642,15.01236,38.64258
29,148.6001,-21.98462,165.71484,-32.739258,67.73181,37.41748,88.24417,-6.5411987,22.12793
30,143.98682,-27.94458,155.56934,-40.55371,47.359985,48.185547,36.086475,-39.581573,5.222168
31,143.33179,-22.523926,167.11035,-39.682617,68.86633,52.970703,68.571304,-14.520264,30.325195
32,137.55518,-28.04126,173.25977,-38.004883,81.662964,48.277832,113.140274,13.837891,56.839355
33,148.82886,-23.702393,166.42285,-34.331055,67.08215,36.208496,102.8392,1.5062256,37.389893
34,144.5393,-35.314453,167.5791,-50.430664,56.855347,18.645508,66.66092,-21.27066,1.012207
35,147.64209,-32.864014,162.69531,-58.655273,58.237305,22.748535,48.28313,-29.486877,2.1206055
36,142.52661,-39.117676,169.28711,-52.445312,64.619385,41.728027,74.26315,-13.844299,35.364258
37,140.40405,-44.708008,178.56836,-53.820312,73.187256,34.972168,101.45378,-4.7661743,45.720703
38,131.82617,-58.710938,168.03027,-52.132812,65.23999,35.42871,88.721634,-17.04181,21.017822
39,138.70947,-56.88037,161.48633,-65.893555,56.589355,24.75879,50.29861,-31.27063,-2.1516113
40,136.39551,-45.62915,165.92383,-64.72266,62.56958,15.361328,55.24145,-24.54715,3.1481934
41,143.0332,-36.796143,169.30566,-53.671875,68.46985,12.812988,85.343735,-8.938904,28.833984
42,144.37573,-38.826416,175.65137,-35.189453,72.40405,34.52832,100.105576,-5.829071,39.530518
43,144.64355,-41.39209,170.20312,-34.44336,73.67908,52.731934,87.68364,-9.96344,28.66626
44,129.61914,-46.94287,165.31348,-50.38086,78.54773,55.22461,73.03209,-7.0113525,25.351318
45,132.63037,-39.836426,165.08203,-52.046875,79.55945,42.108887,90.03076,2.584076,36.414062
46,148.33618,-16.168701,169.59863,-30.314453,77.72827,36.68701,104.6234,5.7680664,43.451416
47,156.09863,-13.835205,169.4541,-15.366211,72.025635,41.467285,85.64371,-14.892578,22.935547
48,149.32422,-21.037842,165.06055,-29.251953,74.1853,53.449707,75.433395,-16.178864,17.815186
49,144.29126,-17.885498,165.58887,-26.50293,87.710815,67.90625,104.223694,13.107361,48.64087
50,147.9873,-9.778809,171.61523,-20.042969,91.08386,66.67871,128.98831,34.30313,75.20166
51,146.08887,-6.2041016,173.39355,-4.451172,88.32886,66.66016,130.73764,30.528229,73.520996
52,143.20532,-13.913818,160.61133,-17.566406,64.39136,32.753418,63.83485,-30.901031,3.5810547
53,137.38379,-16.155518,156.83496,-22.454102,69.95337,42.55127,49.842144,-36.64264,-5.137207
54,129.3855,-15.3203125,158.4082,-28.57129,82.186646,52.24121,94.27513,-4.549652,34.11621
55,138.87964,-3.9104004,165.89062,-6.1621094,88.29639,66.240234,140.7663,41.962982,84.181885
56,136.9104,-6.9506836,159.24219,-2.4072266,76.93274,61.734863,120.11841,24.41623,62.168457
57,150.3169,4.010498,165.34668,1.1181641,82.27771,71.2417,84.81276,1.8586731,38.32129
58,147.5061,4.9140625,149.17871,-19.367188,63.58081,40.773926,50.352657,-40.47464,-3.244873
59,139.77417,7.484131,163.2832,-10.308594,84.95056,45.926758,99.45206,-4.8441467,33.156982
60,148.21118,11.034912,167.84473,2.2265625,82.765625,53.571777,128.51953,20.200714,58.554443
61,138.26416,-4.0490723,161.21484,2.5546875,71.10205,62.728516,105.005646,11.430115,48.95044
62,139.78638,-1.2058105,167.14844,-4.8535156,82.71777,72.28076,83.17067,0.2157898,30.61621
63,125.62866,-15.419189,158.45898,-26.201172,74.09216,47.878906,74.359085,-15.470642,19.20752
64,125.93091,-17.320312,162.73242,-20.697266,79.84888,36.54492,101.75452,-4.675293,37.80835
65,138.073,-4.999756,167.75195,-7.689453,81.81799,37.311523,105.62749,-1.7936096,33.13965
66,144.28394,-2.2141113,165.11719,-1.6074219,80.65442,60.34619,84.86188,-5.432953,25.61914
67,141.90576,-6.037842,165.0664,-10.045898,81.66785,65.5249,85.189896,-0.78186035,32.281982
68,139.31665,-14.319092,162.47363,-23.957031,76.5564,50.745117,98.0361,2.071289,40.49878
69,127.4292,-21.090332,164.34277,-16.070312,84.061035,49.149414,112.86267,9.91095,51.50659
70,128.80493,-29.482422,155.0791,-22.024414,72.53772,37.927734,80.34622,-19.430756,20.96167
71,150.61694,-7.7094727,167.92383,-6.801758,78.22412,47.18164,67.76283,-23.20575,5.949707
72,133.59521,-22.812256,161.39844,-23.11621,72.482666,35.393066,74.54498,-17.154114,11.357422
73,134.9375,-14.263428,168.99121,-10.421875,84.27161,58.470703,117.19499,17.843323,50.877197
74,128.13965,-28.655273,168.28223,-3.0634766,87.992676,67.44043,122.89574,19.48819,59.801758
75,123.354004,-40.489746,155.81934,-22.578125,71.797485,46.45996,70.51854,-24.19513,12.851074
76,116.10474,-47.51709,152.14062,-39.9541,72.65552,37.35547,58.257183,-28.023865,2.956543
77,128.56494,-32.05249,163.04688,-32.001953,84.32471,32.689453,86.43164,-10.83197,17.104736
78,121.06006,-30.51831,164.69531,-20.154297,86.160034,32.564453,114.04497,1.1899109,30.611328
79,137.19849,-26.101807,164.59375,-9.770508,77.58215,51.98828,98.67589,-2.3232117,32.008545
80,128.54102,-35.683594,155.29395,-23.13086,70.720825,47.8125,59.362034,-27.54602,11.369385
81,116.3772,-41.91992,156.14941,-37.16797,78.11987,41.82617,61.19617,-28.638,13.303955
82,116.923584,-45.270752,165.32617,-41.48633,87.898926,21.02539,90.04381,-23.272705,16.309082
83,124.70093,-36.603516,167.02051,-24.311523,93.05066,28.419434,114.47864,-2.7711792,22.576416
84,141.97192,-24.341309,165.51758,-19.52832,77.1488,33.381836,78.41908,-23.697937,-5.0458984
85,132.88354,-29.031982,157.94922,-14.344727,79.16687,67.87012,66.03946,-15.694977,20.0354
86,131.219,-27.203613,161.04492,-20.35254,85.704346,65.89258,83.234055,-1.4202576,41.78784
87,132.88696,-30.868652,165.14746,-22.88379,89.81445,42.924805,107.323456,-3.8149414,37.38965
88,136.39941,-33.364258,166.97461,-18.279297,88.63916,37.88037,104.78691,-8.2836,22.428467
89,139.56592,-26.090088,163.30957,-19.097656,75.77246,31.86084,60.030674,-33.424774,-14.040039
90,151.86719,-13.135498,167.25098,-20.408203,76.525024,28.065918,47.9555,-46.33432,-23.287598
91,147.41748,-15.586426,161.75195,-19.288086,75.86743,32.085938,73.83142,-25.604462,16.441406
92,130.96216,-35.625732,164.47363,-16.010742,82.35425,48.91211,103.415436,-5.3556824,41.568604
93,127.57251,-45.61914,155.875,-32.838867,77.362915,39.987305,79.93149,-28.923767,9.769287
94,129.50732,-43.388184,163.54395,-28.28418,92.08789,50.479004,72.798416,-23.091583,4.5615234
95,121.15259,-47.811035,155.43555,-43.588867,73.515625,22.684082,60.047398,-32.753113,-4.8569336
96,133.46533,-30.113525,165.54395,-27.61621,76.884155,17.246582,77.58731,-25.163605,5.540283
97,152.69849,-19.805176,170.46094,-19.166992,72.47595,11.603516,63.992588,-39.087708,-8.902588
98,137.66724,-41.3291,157.95898,-29.91504,70.45361,37.17627,50.24809,-47.50763,-4.8811035
99,129.58423,-46.42334,151.85156,-39.28418,80.406494,52.27295,64.76305,-30.55371,8.471436
100,122.53418,-52.487793,164.875,-35.64258,103.03235,58.50244,121.6452,11.129883,49.28882
101,121.31714,-56.588867,154.6543,-43.078125,80.03125,25.379395,109.87344,-2.5361938,31.756104
102,123.285645,-60.548096,151.95898,-50.208984,60.62329,4.0249023,53.541615,-47.01599,-21.64624
103,139.12329,-39.06836,156.84668,-36.75,59.058105,4.319336,8.108929,-77.13287,-55.50122
104,144.70557,-31.289062,159.34473,-46.17383,54.925537,-2.5605469,10.348232,-74.16403,-44.475586
105,150.41455,-26.199463,167.6582,-27.243164,81.23364,27.659668,85.48547,-18.384644,23.126465
106,137.43018,-47.329346,166.2627,-25.115234,90.579834,49.236816,115.6857,7.1334534,47.35742
107,134.80615,-54.87744,148.53418,-32.42383,83.51428,46.26758,87.962814,-12.113678,21.929688
108,132.41187,-59.4563,151.58691,-54.58789,74.743286,31.588867,56.36308,-30.91623,-5.467041
109,140.30713,-46.94922,159.18848,-56.890625,70.599976,10.936523,51.639263,-46.69763,-13.6328125
110,147.80981,-36.13159,163.95312,-45.2959,65.39197,-9.319824,46.794254,-54.436462,-21.474121
111,156.5398,-33.9104,171.58105,-29.734375,77.53003,17.251953,55.31941,-42.63388,-13.133057
112,153.41211,-38.219727,165.38672,-28.185547,84.26245,50.72168,68.876114,-19.323547,12.277588
113,139.56934,-35.99463,153.62695,-30.501953,85.05823,56.823242,81.38823,-3.6016846,30.021484
114,135.46313,-36.570557,168.02832,-29.873047,100.52344,56.29541,120.3465,15.276764,54.480957
115,140.2207,-33.355225,172.83496,-25.841797,96.71338,36.029297,105.06473,-1.7819824,28.894043
116,160.57983,-16.176025,168.08887,-25.986328,74.13135,17.0542,37.55015,-45.51413,-22.917725
117,147.86865,-26.763184,143.71387,-44.92578,47.01184,-12.697754,-21.660412,-96.704285,-70.20166
118,155.07886,-20.918701,166.86816,-26.439453,87.89172,39.944336,64.06337,-25.84851,4.3740234
119,133.22632,-30.416016,165.64941,-23.199219,105.83435,47.90918,127.727234,19.33374,51.176514
120,133.87427,-34.65674,164.23145,-8.253906,107.809326,61.284668,125.29129,19.545746,51.97998
121,142.94116,-26.113037,151.69824,-13.848633,86.32788,48.27588,66.08766,-25.324982,2.8034668
122,142.60645,-22.370117,156.98145,-29.581055,73.023926,19.32373,25.238201,-57.359222,-29.97754
123,157.79321,-4.085449,167.78027,-17.964844,73.320435,12.474121,34.215305,-54.057983,-23.056396
124,148.42188,-10.801758,172.8789,-1.6523438,84.2146,37.74951,73.88426,-29.619965,8.190674
125,141.05249,-23.000977,161.46875,-5.4492188,93.46484,55.05664,90.08455,-11.209137,21.39624
126,143.6543,-14.692383,163.23242,-10.265625,97.17566,60.799316,76.25049,-15.593628,10.489014
127,136.71704,-21.588623,159.6123,-22.841797,96.30115,43.394043,76.77815,-21.058777,10.168701
128,135.99219,-17.286377,166.28906,-16.667969,91.5426,16.512695,82.385635,-29.790619,4.996338
129,150.36401,-7.7177734,165.9668,-11.813477,71.44922,-2.496582,46.98189,-55.66931,-29.924072
130,156.09912,-9.224121,170.81836,-10.829102,74.075195,23.46875,29.3205,-51.81134,-34.311035
131,144.91699,-13.782715,166.25098,-6.3154297,92.513794,55.45215,63.559933,-22.921753,1.7900391
132,135.05005,-13.986084,154.35742,-11.874023,90.24573,53.365723,89.87369,-13.07132,23.53418
133,133.56226,-18.55249,157.4668,-6.9248047,95.60181,47.401367,105.515625,-10.839264,25.001953
134,119.923096,-36.470947,139.40039,-19.855469,79.14575,23.882812,59.018887,-47.60608,-17.578613
135,133.01001,-27.564209,150.37207,-19.901367,77.352905,9.961914,24.620129,-56.65674,-38.159668
136,151.4397,2.4821777,161.27734,-1.2802734,83.51782,26.973145,48.030727,-34.823883,-12.454346
137,155.82788,4.2717285,176.51465,12.5625,105.17273,58.916504,104.155396,1.1550903,34.085693
138,151.66113,-0.7348633,163.00488,13.4296875,102.893555,66.86426,109.55028,1.7463379,35.924316
139,148.98657,-7.2644043,156.0293,11.206055,94.39502,68.433105,71.873474,-22.588257,12.507568
140,134.7981,-16.281982,154.02148,-3.5761719,96.15112,56.465332,57.75749,-29.952515,-4.1828613
141,118.59497,-24.425781,153.73438,-15.30957,93.460815,27.80957,74.251724,-22.510315,2.659912
142,144.20142,-1.8435059,168.6084,10.388672,97.55652,38.390137,90.0367,-12.469879,16.8042
143,143.27637,-3.1428223,160.65527,16.675781,94.90381,51.89209,86.63751,-15.642059,14.964844
144,134.02148,-7.376709,149.9873,16.82129,91.27783,62.206543,69.495636,-22.86557,5.51709
145,129.84985,-9.18042,143.59668,15.885742,90.903076,65.31348,68.6454,-21.415863,5.3583984
146,119.45361,-14.425293,140.74902,1.2861328,86.809326,50.48584,81.5874,-18.302124,13.879395
147,135.32568,-8.332275,155.28516,12.1953125,91.7677,41.01758,86.22389,-19.045288,9.567871
148,142.88623,2.9714355,152.68652,13.308594,80.926025,40.083496,49.395283,-38.910797,-12.104492
149,152.1499,13.310303,156.35254,20.841797,98.62109,68.34082,64.49675,-18.604797,6.300537
150,143.28247,17.372803,158.83398,28.530273,115.34839,83.33984,106.17702,12.497803,42.11841
151,130.7732,9.9782715,146.74316,28.126953,105.884155,67.11377,122.611984,11.524048,44.492676
152,133.6936,10.253418,149.53711,32.402344,97.97485,62.5708,99.06091,-7.2314453,21.801025
153,127.10864,-1.9450684,140.03125,19.13379,84.4303,52.222656,42.46581,-45.925507,-18.480225
154,132.05542,6.069824,138.82227,8.740234,83.16345,31.947754,34.540325,-47.89798,-22.294434
155,155.0498,30.731934,157.79297,32.807617,101.746826,61.186035,91.67502,-0.67910767,31.480225
156,144.229,21.60083,153.64648,39.6709,109.29724,67.24609,124.0405,19.164734,52.121582
157,145.93555,13.527588,146.56348,34.476562,99.28186,69.41406,92.57762,-6.441681,27.471436
158,130.41235,-2.61792,142.2793,17.87207,93.09094,57.870117,58.522724,-33.098694,-2.8793945
159,129.20728,3.915039,141.91699,8.902344,94.97693,39.78955,60.79463,-32.74283,-8.363525
160,134.75146,9.221436,146.92578,15.256836,95.42053,33.731934,82.20407,-19.13031,14.261963
161,145.00977,19.069824,151.61523,34.61914,95.38257,53.980957,86.13495,-9.801666,28.679932
162,144.39111,9.42627,147.82031,22.402344,95.52258,59.506348,67.203964,-20.862122,13.955811
163,128.48682,-3.5246582,135.1748,4.455078,89.479614,49.793457,56.2085,-32.47705,-0.30786133
164,132.49829,-1.28125,143.29492,4.817383,99.63953,41.870117,84.25752,-22.944397,10.244873
165,135.66406,2.3188477,151.78906,22.52832,108.30139,44.693848,99.77464,-11.062958,20.540771
166,142.99878,-1.1047363,145.41699,13.566406,90.27954,29.416504,60.228474,-36.59189,-6.5646973
167,150.38452,2.8308105,149.91113,18.761719,90.205444,49.88867,41.66077,-34.897217,-3.6638184
168,147.90356,2.8613281,155.80371,14.577148,97.539795,58.509766,62.01388,-25.722534,15.397949
169,146.93042,3.0012207,158.30664,22.259766,108.00195,59.313477,107.62703,-4.4064636,41.11792
170,121.249756,-28.592285,143.70996,-1.2285156,102.68274,39.461914,106.49864,-11.17395,25.239258
171,129.979,-29.784424,145.54004,-6.875,104.507324,42.442383,76.41345,-22.311981,7.0820312
172,138.13452,-17.812256,145.03027,-10.555664,87.82776,20.958496,31.844685,-49.935944,-26.427002
173,149.69775,-5.559326,154.13867,2.2705078,90.99927,16.671387,43.268017,-46.739197,-18.293945
174,154.68433,-5.14917,158.6084,7.8671875,90.24719,31.760254,77.97572,-27.727356,12.522705
175,150.26807,-13.93335,159.41504,23.036133,96.31958,52.623535,87.65192,-16.11557,19.764404
176,136.31128,-28.006592,148.50195,0.29882812,94.10852,51.725586,61.39822,-27.272888,-1.3271484
177,129.6018,-32.695557,141.42188,-13.246094,89.42297,37.52832,52.131023,-37.38965,-10.056885
178,136.47974,-23.051514,151.86133,-5.8623047,89.635864,17.708984,61.60924,-39.481018,-3.7297363
179,143.22827,-22.348145,162.21387,9.688477,87.52246,13.555664,52.39356,-42.111847,-8.665039
180,147.05908,-22.139893,153.44727,3.3789062,80.56836,18.964355,31.454556,-59.779755,-24.29956
181,129.46118,-42.304443,140.9414,-17.657227,85.046265,29.379395,36.835766,-55.01837,-20.131348
182,131.61523,-38.604492,144.63574,-16.589844,96.08435,30.81543,70.24719,-26.890808,1.434082
183,146.52515,-24.157959,161.62695,2.3271484,107.202515,36.41797,96.90622,-12.046539,25.69043
184,138.45093,-37.58374,148.1123,-5.578125,84.35571,20.176758,52.748547,-47.870483,-13.84668
185,145.0393,-34.39258,147.48926,-13.004883,78.17981,10.641113,10.882771,-76.448,-45.894287
186,153.72559,-23.824219,144.22461,-14.036133,79.32654,10.6796875,12.201221,-73.25067,-39.700684
187,132.09033,-40.40796,152.71484,-17.83789,91.07654,13.796875,65.347885,-36.848328,-5.1777344
188,125.515625,-48.802734,148.24805,-10.719727,86.99341,16.318848,76.519775,-33.396423,-1.706543
189,147.83032,-24.620605,156.33008,19.34961,99.088135,56.68506,69.19731,-28.192871,4.0947266
190,135.45117,-36.58374,150.90918,1.0,93.306885,50.909668,31.123302,-47.2222,-12.336914
191,140.51807,-30.947021,150.11426,-8.425781,93.04431,30.1958,33.42848,-48.489777,-14.1311035
192,144.94287,-24.469482,156.88965,-7.8027344,94.373535,12.438477,52.40832,-52.087524,-16.39502
193,137.84595,-32.614502,155.73828,11.967773,94.36731,28.0542,62.479717,-45.957123,-16.733887
194,125.895996,-47.267334,132.47266,-3.5019531,78.21179,32.965332,34.31738,-58.52884,-30.218262
195,125.065186,-46.360107,141.19824,-10.640625,93.392944,35.361816,41.33727,-37.89322,-10.980957
196,127.299805,-41.7854,143.65723,-3.1435547,95.72046,26.777832,60.93738,-29.3078,4.5825195
197,137.81226,-28.673096,150.95996,22.46582,95.09448,37.914062,62.698383,-34.812317,5.4624023
198,145.86523,-27.618408,146.71582,18.250977,80.10132,36.206543,24.007,-69.861694,-31.613525
199,148.17847,-28.106445,149.40625,13.514648,87.85156,39.66455,23.192585,-62.568542,-34.308105
200,126.322266,-37.59912,142.95508,2.2714844,100.54089,41.79248,58.713253,-30.499298,-0.6784668
201,132.03589,-34.771973,146.31543,1.1699219,100.305664,18.876953,84.40581,-19.66159,7.5979004
202,117.91089,-55.220947,136.48535,-15.703125,86.72656,4.823242,57.602764,-41.601868,-14.100098
203,133.67358,-44.3667,145.14941,3.8261719,89.697754,30.200684,19.45184,-63.313293,-32.881104
204,142.01978,-30.19873,148.45801,13.390625,85.47778,42.57715,1.5891228,-77.299286,-40.350586
205,134.8064,-30.886719,139.40234,8.874023,87.273315,35.09961,35.89123,-54.212524,-12.407227
206,143.82495,-25.97168,156.48145,20.451172,104.12573,42.90381,86.29991,-14.173126,26.261475
207,133.30371,-38.612793,147.61426,20.59375,91.975464,29.86914,70.63017,-25.995087,-0.3395996
208,141.44263,-32.293457,147.125,10.388672,91.48108,28.496582,32.176,-49.66623,-24.647705
209,119.740234,-47.651855,136.41113,-9.3359375,82.12012,18.17041,7.954647,-68.22766,-36.671143
210,136.1836,-33.249023,151.64258,8.921875,93.18237,30.151855,40.744236,-54.510193,-12.193359
211,141.00122,-37.028564,159.1377,16.253906,89.302124,30.666016,48.777073,-52.324493,-6.9414062
212,129.48315,-48.898193,150.18262,1.2851562,97.117676,37.010254,55.474155,-35.359802,-5.26001
213,129.95532,-49.966553,143.81738,-10.172852,93.540405,20.430664,41.70725,-43.463684,-21.488281
214,137.53052,-36.8562,148.28516,-2.1015625,90.11694,12.238281,51.518375,-40.56775,-20.208252
215,152.69312,-22.372559,154.05371,9.061523,86.43225,8.33252,45.314922,-54.347473,-20.347168
216,148.05884,-30.794434,152.27148,18.96582,85.85083,22.225586,32.73469,-63.31076,-24.4375
217,148.84448,-38.67212,152.16113,6.098633,92.674194,38.086914,24.189854,-62.60492,-26.442139
218,127.68579,-54.627197,143.63965,-8.415039,101.19873,38.02881,48.310177,-39.260742,-6.291504
219,134.3186,-37.05664,148.95801,2.8203125,110.57214,30.29248,86.28383,-21.66687,13.1779785
220,145.72266,-35.434814,150.85742,3.2021484,97.17212,3.862793,69.77028,-34.880493,-11.334961
221,136.15112,-47.54126,140.74219,-10.834961,65.78723,-7.4160156,3.0001945,-84.987305,-58.183105
222,163.98218,-18.10913,152.27637,9.568359,73.22986,12.492676,-11.659073,-85.75214,-57.660156
223,155.93652,-25.496582,156.17285,3.2695312,85.58765,16.468262,27.864285,-57.14987,-24.534424
224,149.68066,-29.677246,157.96484,5.5371094,104.486084,33.268066,88.64748,-12.859161,19.900879
225,143.98364,-44.470215,147.60254,9.019531,104.13257,31.492676,78.804474,-26.306305,5.128418
226,128.11743,-64.68359,136.94238,-6.392578,83.1001,22.074707,16.716618,-69.02237,-36.336426
227,144.26172,-51.079346,143.33301,-13.824219,82.54822,14.374023,1.5105629,-75.85306,-41.816162
228,144.24365,-43.693115,147.6211,-12.508789,77.7478,-13.308105,18.558735,-72.41037,-41.260254
229,165.56079,-26.261963,164.39355,8.498047,88.264404,-1.4101562,54.000225,-43.54007,-15.689453
230,159.219,-38.803467,154.91016,11.333984,77.21399,19.242188,40.095165,-45.22705,-16.161133
231,149.18555,-48.770264,148.72754,2.9169922,80.20862,38.29248,27.856907,-50.726135,-16.903564
232,130.70874,-68.79541,142.28125,-18.53711,79.63489,23.25879,20.818546,-57.967346,-19.385254
233,118.38794,-79.372314,148.70996,-24.483398,92.89612,7.040039,51.20911,-46.086548,-7.92749
234,131.18115,-74.56763,149.88379,-15.607422,83.8219,4.152832,35.142628,-57.99298,-29.034912
235,127.06372,-84.21118,140.60352,-26.807617,63.92749,-7.043457,-17.851116,-93.04608,-64.96289
236,141.03369,-68.89819,141.65625,-29.083984,57.857544,-17.562988,-26.980106,-96.6557,-72.26929
237,132.82617,-70.81177,137.86621,-29.292969,62.187256,-16.70752,6.604557,-83.56723,-50.9834
238,120.30249,-90.15723,143.14453,-23.973633,79.2489,2.8183594,52.349804,-52.19519,-14.36792
239,112.3999,-115.60718,136.8418,-37.831055,74.3313,3.7216797,45.028545,-52.947144,-23.250977
240,114.10986,-119.34985,136.7998,-40.603516,81.90344,15.222168,23.9258,-53.889587,-27.989014
241,120.1626,-109.3103,134.64453,-48.000977,71.02881,1.4521484,-0.79850006,-73.6915,-44.03955
242,123.19751,-107.305664,148.60742,-44.86914,64.433716,-25.80664,-2.0966034,-87.62671,-51.328857
243,133.50781,-106.91235,155.76172,-34.890625,60.67578,-27.631348,-0.483387,-93.172,-55.42456
244,114.758545,-138.76611,139.90723,-50.510742,52.43286,-20.976074,-12.45731,-101.99942,-63.74536
245,103.55054,-153.09766,140.37207,-65.12109,63.641846,-10.717773,-3.60886,-82.53583,-54.153076
246,95.39551,-160.70996,144.41113,-73.70117,71.98987,-15.447266,26.418522,-59.69699,-31.069824
247,111.35156,-142.82715,157.49512,-49.401367,83.23682,-2.3354492,47.824993,-41.667084,-7.795166
248,103.97363,-161.25586,141.70703,-56.308594,52.753418,-22.342773,-18.880852,-102.65692,-63.24463
249,109.40112,-164.17651,138.02246,-77.73828,41.383545,-49.710938,-71.01568,-149.19394,-114.44702
250,95.653564,-172.34106,151.0586,-74.22168,61.07361,-29.162598,-22.94334,-108.81479,-75.94092
251,90.186035,-171.80493,148.19629,-70.634766,70.18872,-28.333984,37.64567,-63.62564,-33.581787
252,88.142334,-173.63916,149.90527,-61.124023,75.88989,-18.66504,47.552784,-55.750122,-28.364258
253,88.83008,-179.0,148.51562,-65.86035,71.78406,-17.220215,14.50066,-81.273865,-57.47754
254,88.371826,-176.30444,132.36426,-72.61719,53.3302,-23.192871,-37.739433,-116.88394,-84.97095
255,109.501465,-149.8916,144.22363,-65.484375,59.671997,-22.917969,-29.257107,-105.86026,-66.4707
256,122.411865,-136.41284,152.92773,-50.476562,62.9552,-23.416016,10.924892,-80.94833,-38.41284
257,125.98462,-126.69629,155.73438,-27.49121,73.72803,-2.5888672,28.430775,-62.518433,-29.767822
258,119.34839,-127.33545,147.63965,-32.301758,66.82922,-1.8901367,7.1448555,-81.20178,-50.424805
259,110.25708,-127.50928,147.39453,-36.523438,86.510376,21.57666,31.20882,-48.871185,-16.377686
260,112.56299,-117.507324,146.93066,-37.135742,90.81641,9.157227,46.036488,-41.82364,-10.195557
261,106.481445,-116.00293,151.24512,-27.021484,91.38245,1.4282227,42.220776,-51.229218,-16.045898
262,122.94336,-100.715576,144.64551,-19.737305,70.75903,-6.9624023,-19.330235,-102.72485,-66.00195
263,134.04077,-82.5437,143.91406,-15.986328,69.7605,13.597168,-25.928799,-93.2099,-52.511963
264,141.24048,-67.720215,156.35645,-8.733398,91.91931,17.172363,31.409908,-43.466248,-18.023193
265,128.1377,-67.338135,153.80566,-1.1464844,93.05884,17.995117,67.64426,-20.859467,7.8242188
266,131.04297,-69.37329,152.41602,7.415039,94.68933,29.305664,64.35608,-23.1073,5.2302246
267,133.06714,-64.51929,149.27148,7.4052734,96.374756,37.799805,28.577213,-47.724792,-16.73169
268,143.0249,-49.446533,142.05371,-1.3007812,80.256836,17.47998,-10.175983,-73.956635,-41.832764
269,132.97583,-50.33423,149.19531,-2.3222656,88.67981,5.2060547,7.2784843,-70.75067,-38.363037
270,115.97803,-62.112305,148.1377,0.14746094,102.79724,11.557617,61.03722,-38.831726,-5.08667
271,133.65796,-53.672363,156.44824,22.40039,110.44531,35.615723,74.98955,-9.5329895,14.871094
272,144.68164,-42.67212,135.78613,17.603516,84.99097,31.239258,28.613873,-40.349335,-14.670898
273,143.43042,-36.00171,142.76074,24.761719,86.222534,46.53662,35.883938,-31.732513,3.0732422
274,135.58105,-41.53882,142.18164,18.07129,82.73132,17.033691,36.71287,-43.102295,-7.221924
275,130.94629,-49.203857,142.44238,13.858398,84.200195,-2.4521484,33.409687,-58.711243,-27.903076
276,135.35986,-48.4292,138.77246,16.27246,88.16968,28.754395,16.029728,-63.48712,-25.3667
277,117.61304,-55.9458,132.49316,11.376953,99.07764,39.331055,30.784107,-48.306976,-12.150391
278,109.791016,-56.635498,122.118164,-1.5429688,84.63025,13.12207,42.410404,-44.1994,-9.115723
279,128.73438,-32.671387,132.0166,17.75293,88.92078,17.983398,61.54143,-29.084473,3.5373535
280,127.91431,-38.13794,130.84082,16.345703,78.80676,10.427734,25.519955,-55.47165,-29.398926
281,143.34106,-24.294678,135.95703,17.97461,72.563965,8.022949,-17.744102,-85.710846,-58.145508
282,123.5896,-43.779053,117.12305,-14.332031,75.97876,21.909668,-45.26104,-90.70941,-56.16504
283,114.5293,-43.78247,129.95996,22.679688,100.40259,47.95215,74.514175,-16.058868,28.257324
284,114.10571,-45.032227,135.76172,31.385742,100.73157,42.739258,86.05147,-8.973877,25.9458
285,110.86157,-57.16504,130.31445,23.414062,88.68799,33.03955,35.264263,-44.85846,-15.813965
286,115.19092,-53.292725,131.01953,6.923828,82.62097,11.109375,-4.301758,-75.79431,-50.749023
287,132.02954,-28.695557,127.0332,6.2666016,72.63257,-18.31543,-12.404514,-94.83496,-65.32739
288,137.39331,-19.6333,146.25684,34.143555,88.93921,4.772461,38.60861,-59.514862,-26.935059
289,142.66528,-22.242188,142.4209,59.52539,95.15454,58.42285,68.63844,-14.248169,26.202148
290,121.89453,-49.732666,128.94238,36.02539,82.97595,67.18262,33.46628,-27.869476,13.452637
291,102.57837,-66.73047,122.19922,19.042969,93.10156,54.052246,31.80515,-34.10077,2.2626953
292,109.7832,-61.888916,131.13672,18.641602,100.49158,44.93994,54.84679,-25.863495,8.879883
293,121.09302,-51.626953,133.90039,20.753906,85.05444,14.987793,31.678188,-60.398804,-24.50415
294,128.69287,-50.848633,126.27832,11.850586,61.938354,-9.972168,-16.520676,-99.775116,-70.448
295,131.21167,-43.818848,129.12012,29.527344,81.18286,24.861328,4.6385,-67.08096,-36.081055
296,118.23999,-50.883057,138.82422,26.052734,97.23486,43.53076,45.6757,-31.750244,7.836914
297,112.177246,-58.28955,132.41797,22.61621,84.722046,29.093262,53.774334,-32.739685,11.675781
298,114.46094,-57.003906,134.66504,34.11035,82.27698,43.379883,48.72019,-37.619995,4.1726074
299,120.92114,-54.519287,129.91211,21.492188,73.2926,29.959473,-1.0463791,-74.23633,-41.382324
300,130.32153,-43.364746,132.36523,14.8984375,67.85864,15.650879,-22.957878,-91.94751,-57.29419
301,146.18652,-21.255371,142.18848,35.22754,83.431274,20.998535,22.854755,-53.085693,-16.267578
302,131.14746,-42.013184,142.73633,36.871094,90.2041,36.200195,56.84342,-25.756836,16.875977
303,116.21362,-63.2959,138.26953,28.449219,88.466675,44.68994,46.515865,-32.78067,6.7424316
304,123.6875,-56.685547,135.8125,23.948242,90.2677,37.345215,17.185978,-50.409454,-18.469238
305,116.7041,-64.00806,132.99219,7.5966797,81.58069,14.1171875,3.822895,-74.95984,-45.85254
306,125.99658,-52.082764,144.52539,18.479492,84.24695,8.29834,25.821552,-66.27371,-38.469482
307,143.79224,-33.338867,149.33496,37.48535,84.0564,15.313965,30.4632,-47.437195,-24.478027
308,148.27515,-37.59082,141.48438,28.433594,72.67322,21.334473,-3.9792519,-68.04227,-39.311768
309,117.66992,-73.06152,127.913086,-5.8789062,74.327515,15.996094,-1.1040611,-69.14017,-39.385986
310,117.58374,-64.45264,136.14062,8.958984,92.487305,30.419434,39.425083,-46.104767,-10.510254
311,126.27246,-56.174316,138.45996,23.418945,88.74744,30.911133,48.56425,-40.98938,-3.9768066
312,120.35791,-65.02637,130.03418,13.044922,77.44531,17.549316,22.430813,-63.013397,-33.774902
313,129.68652,-62.878906,132.60547,12.355469,72.54968,12.524902,-17.425991,-79.69586,-55.56006
314,147.36621,-37.74707,140.8789,28.510742,79.218506,34.96826,1.1743431,-54.07138,-22.216064
315,128.55762,-49.905273,131.09863,27.223633,74.80432,38.231934,38.69209,-36.079285,6.2407227
316,119.74536,-63.74341,132.6709,29.25879,81.461914,37.342773,55.24499,-31.19522,5.4226074
317,113.28833,-74.19678,134.08398,28.19336,77.33484,36.992188,19.67728,-58.10135,-27.717285
318,106.23193,-78.014404,132.5332,10.009766,87.52283,31.401367,9.33334,-60.82419,-39.426025
319,114.02905,-69.850586,139.1748,3.930664,87.38611,6.5390625,7.622738,-66.00806,-46.03833
320,132.0586,-50.913574,140.65137,16.15332,74.66382,4.675293,18.21664,-57.788788,-32.348633
321,127.50464,-64.53516,123.88672,16.069336,61.296387,23.460938,12.010937,-59.370514,-23.20459
322,129.97876,-68.83252,132.5332,17.955078,79.02234,46.23633,22.139172,-38.545563,-9.021484
323,110.50708,-77.651855,132.53418,6.5214844,85.55188,38.22168,21.950169,-41.18982,-17.405518
324,113.81787,-69.95703,132.66406,3.84375,77.871826,12.637695,27.5872,-59.116974,-28.504395
325,109.716064,-76.03027,131.1289,7.2822266,79.56665,3.227539,29.099758,-64.19809,-38.043457
326,112.460205,-75.43652,124.39453,6.6992188,59.26172,-0.7817383,-22.727009,-91.89914,-65.56787
327,121.96362,-64.645996,123.75391,13.544922,62.455322,26.75586,-19.484486,-75.022736,-43.486816
328,116.41382,-67.383545,126.81055,7.1152344,66.94495,32.817383,13.38879,-46.856873,-9.182373
329,114.05127,-72.34204,126.23633,2.0986328,63.45996,12.047852,32.68665,-46.2023,-9.181152
330,112.79028,-80.08179,121.06348,-0.57910156,62.054688,4.345703,10.485058,-73.60034,-40.588867
331,116.663574,-81.48389,128.77637,-6.0810547,65.12866,5.944336,-22.46296,-98.91135,-71.41821
332,118.12036,-78.5166,126.19336,-17.185547,65.06909,-7.824707,-24.529106,-88.96973,-75.57788
333,130.41577,-62.0437,133.37598,0.44140625,80.78235,14.254395,22.547665,-48.276825,-26.911377
334,113.55493,-82.6626,131.37598,0.07421875,83.70422,28.345215,49.274876,-22.665253,8.026123
335,109.38086,-89.05664,129.09961,8.336914,80.05005,36.54883,34.337986,-33.8179,-4.9404297
336,96.42285,-99.87988,117.862305,-7.2958984,54.01953,32.262207,-19.22039,-74.38544,-37.973877
337,98.8833,-99.76807,118.018555,-22.006836,53.412598,12.6328125,-22.718071,-87.4465,-47.89209
338,106.54175,-85.27222,130.24512,-11.446289,73.555786,-1.1640625,26.261272,-54.970856,-30.46167
339,126.098145,-71.51099,135.14062,13.082031,75.89075,17.058594,30.42078,-51.82193,-27.125732
340,130.7251,-68.95068,129.01855,26.736328,74.06299,58.60791,18.823856,-46.758545,-11.051025
341,113.37598,-83.65503,124.91797,2.3095703,67.8501,47.660645,1.1599083,-55.093353,-15.774414
342,104.230225,-93.95874,121.24512,-17.558594,58.864502,19.314941,5.3990517,-59.271698,-19.270752
343,107.51514,-87.8147,133.96191,1.5039062,71.1792,20.410645,22.3456,-57.581726,-16.698486
344,106.41968,-95.781494,129.91016,-5.7910156,63.114624,-2.9311523,-8.075001,-87.68756,-57.770264
345,113.96973,-78.92822,132.1416,-3.2929688,70.30554,6.1845703,-12.961243,-81.6192,-63.418945
346,112.28711,-74.21216,126.23633,-2.7509766,72.44116,26.92041,3.8589592,-60.06433,-33.91089
347,110.08008,-75.5188,126.84668,11.755859,80.52283,50.78369,47.41779,-27.31781,12.108887
348,107.58838,-82.293945,129.10254,12.624023,83.49963,50.546387,55.433697,-25.954773,18.589111
349,114.41431,-85.971436,123.180664,-7.176758,58.620605,26.388184,-11.367588,-81.96124,-43.492676
350,117.71045,-79.51172,125.418945,-14.470703,61.06775,23.097656,-26.131863,-92.145905,-59.60791
351,122.446045,-76.690674,125.9043,-26.987305,59.110962,-5.65625,-0.7910347,-79.70953,-56.44043
352,132.21045,-66.295654,136.7832,7.1757812,75.545044,16.371582,41.56339,-39.17798,-12.935303
353,133.48145,-65.70093,136.75,18.064453,67.54724,38.823242,24.324528,-45.890717,-8.018066
354,117.06763,-80.58081,118.40625,1.2822266,52.17981,40.93506,-15.715897,-75.48297,-33.975586
355,111.15967,-87.27881,113.76172,-12.801758,56.62451,36.083496,-14.581623,-78.96463,-34.549805
356,113.10425,-81.534424,123.703125,-10.890625,68.05151,28.928223,26.841145,-54.32956,-14.0563965
357,112.095215,-83.048096,121.052734,-0.6513672,65.79285,29.862305,37.185726,-43.947052,-2.4467773
358,124.75293,-77.37134,125.29199,-2.9042969,58.485474,15.712402,-3.199585,-74.333405,-44.39746
359,137.9541,-63.72339,125.00293,-3.4169922,50.424194,10.430664,-34.1615,-90.317444,-68.44531
360,128.19556,-64.83301,122.56152,-4.9277344,51.382446,25.324219,-14.696892,-76.08484,-36.02417
361,116.39502,-76.68921,127.34863,-1.3134766,62.84619,36.87793,27.96809,-46.95163,-2.1972656
362,104.000244,-83.7439,124.12598,8.3828125,71.28894,50.73584,39.832897,-35.724365,3.7495117
363,112.549805,-83.03955,126.51367,7.4033203,75.594604,53.404785,18.207119,-47.10852,-16.330322
364,115.87891,-79.40015,121.430664,-6.373047,61.4209,33.990723,-9.373478,-70.30484,-38.58545
365,121.114746,-66.6084,132.58398,5.3007812,66.27612,28.585938,3.8392906,-65.47781,-30.35498
366,116.28296,-71.71631,128.44531,7.504883,63.71936,20.24414,12.755024,-62.521545,-21.393066
367,106.38696,-82.39209,123.01953,0.8378906,59.99585,33.117188,6.575138,-61.163666,-22.67041
368,93.82837,-99.04175,119.49902,-18.533203,66.56995,39.178223,0.16207504,-62.64215,-30.147217
369,96.99463,-86.427246,122.57617,-1.4423828,82.39441,52.248047,26.873264,-42.71405,-5.159912
370,110.3208,-72.54712,124.19141,7.783203,76.91174,41.916504,40.49309,-42.31259,-4.1728516
371,124.78711,-55.98291,136.05273,28.452148,76.552246,57.086914,43.02862,-34.114838,2.7441406
372,118.252686,-65.52368,128.03027,15.865234,63.354248,44.739258,-5.4169655,-60.42624,-27.711914
373,111.73682,-75.63574,120.88965,-1.5439453,69.568115,46.824707,-8.896584,-63.018463,-20.692871
374,96.2168,-80.43359,119.243164,-6.401367,77.694336,43.74707,28.855946,-44.37433,2.5368652
375,102.30151,-76.31738,122.9082,4.2421875,76.55347,42.90576,51.79301,-34.33838,9.054932
376,102.519775,-80.89014,115.93555,1.8564453,59.100708,41.309082,19.455822,-60.797028,-21.823242
377,108.34131,-77.072754,127.79297,7.0214844,76.17493,54.089844,9.828945,-53.332733,-19.752686
378,102.10376,-78.61426,122.73535,-7.080078,64.55774,34.27881,0.022666931,-56.527954,-23.073975
379,97.59155,-76.08325,128.41895,9.283203,78.84656,37.86084,38.555096,-30.49591,6.3049316
380,94.82056,-79.60083,120.5957,10.032227,69.91785,41.301758,34.56429,-45.422577,3.8535156
381,79.38623,-101.4353,105.6582,-2.421875,52.26819,34.76123,1.0843773,-72.26083,-33.555664
382,85.071045,-98.12842,105.490234,-18.010742,52.404907,31.148926,-5.422394,-69.74527,-38.55298
383,83.70581,-90.91724,113.384766,-5.7841797,60.384766,46.59082,27.79884,-38.63669,-5.005127
384,101.96118,-70.96167,127.194336,9.0546875,73.47644,44.499023,50.353054,-26.01358,4.7072754
385,96.33008,-79.9458,120.74902,6.091797,66.86365,37.85547,25.510891,-45.371002,-16.648926
386,99.65259,-85.53418,113.87207,3.258789,49.975586,45.21338,-23.33297,-77.9003,-38.422607
387,100.120605,-80.211914,105.22656,-1.8916016,48.84082,47.447266,-18.572926,-82.943115,-36.34839
388,75.23584,-100.85742,106.59668,-7.364258,62.20703,47.729004,39.072124,-43.57257,5.743408
389,78.868164,-97.35425,119.25391,6.348633,72.59558,52.55127,61.89986,-18.120544,21.90918
390,82.70703,-100.14282,114.4082,0.61328125,69.67468,46.88379,31.590595,-34.20346,-8.727539
391,89.12891,-89.493164,107.01074,-11.237305,53.390503,34.816895,-9.965187,-64.698395,-38.108887
392,98.20801,-72.16211,108.58887,4.955078,56.348267,49.936523,-8.039913,-64.335815,-22.542236
393,95.71045,-73.385254,108.07129,11.138672,45.061768,48.680664,-4.098198,-72.73007,-12.922852
394,94.04321,-80.2793,112.35742,15.374023,65.11218,60.73633,41.950512,-37.448547,15.071777
395,81.41919,-92.96411,101.02344,-4.6816406,54.117676,46.306152,21.728573,-40.598938,-7.73291
396,94.56543,-83.33765,108.50586,-8.385742,68.37158,50.96826,27.715359,-27.829407,-5.8532715
397,95.18506,-70.066895,106.7168,6.46875,69.20239,43.64795,41.24062,-26.96103,6.2302246
398,103.793945,-63.915527,118.00586,25.125977,61.822876,54.44873,32.70796,-36.187225,5.0007324
399,97.91528,-71.819336,113.53906,23.82129,55.670776,61.68799,0.60783386,-65.81268,-19.056152
400,85.37207,-80.33911,101.04199,-3.0351562,50.302124,53.324707,-10.125912,-68.082855,-30.128174
401,81.47632,-75.74634,104.31445,-9.5625,64.686035,52.11963,28.334393,-35.310913,0.83618164
402,99.10669,-57.168213,112.12402,15.449219,75.899536,67.89258,71.97229,-2.2750244,36.14453
403,101.52417,-56.77246,115.26172,22.333008,66.63025,58.191895,56.494015,-15.827637,18.954346
404,120.407715,-39.549072,116.26367,22.572266,54.72339,42.317383,0.3608055,-47.018616,-23.216553
405,104.41528,-51.554688,109.45703,18.487305,58.258667,62.23535,-16.530758,-66.57257,-25.13916
406,84.38721,-66.45996,103.52539,4.9335938,69.36084,57.807617,35.441006,-46.41748,-0.9074707
407,84.23657,-64.259766,109.01074,11.5390625,70.06445,63.11377,64.78929,-18.249207,28.825684
408,97.453125,-53.354736,113.91016,25.267578,72.66675,77.88623,56.74905,-3.9451294,35.393066
409,104.86084,-48.355957,105.73828,20.21875,62.43701,78.06592,18.837673,-23.09024,10.106689
410,122.01123,-21.848389,104.66406,20.273438,47.473267,55.28174,-6.2181664,-45.944366,-13.201172
411,118.16016,-25.356201,115.4707,27.749023,56.78369,42.711426,21.349545,-43.799896,-8.515381
412,103.05591,-41.48828,116.993164,31.481445,71.314575,59.583984,60.79823,-18.572937,15.445557
413,94.1333,-55.98047,103.63867,17.069336,58.98535,67.61914,36.668606,-26.37381,8.386963
414,83.00879,-66.26514,104.14453,-0.48828125,68.392334,69.75879,24.544308,-21.445343,11.076416
415,101.73657,-43.029297,112.24805,9.955078,82.20752,69.73682,47.519352,-7.3108826,30.91333
416,116.65015,-23.390625,109.46875,19.986328,60.19275,49.958008,41.8512,-20.331726,14.137695
417,120.04297,-27.165771,109.11328,26.192383,45.07422,51.799316,10.457645,-47.43039,-17.134521
418,121.82739,-28.884277,112.80469,21.189453,55.90271,65.00586,1.1520958,-51.024506,-16.119873
419,109.968506,-39.608887,110.74609,10.0390625,63.108032,63.041992,20.187222,-33.713745,-2.220459
420,100.270996,-46.654053,119.802734,15.404297,73.0083,67.91943,62.736042,-0.6909485,35.818115
421,106.078125,-41.437744,123.174805,23.083984,76.48706,73.34473,71.32143,5.6464844,46.019043
422,108.26001,-47.987793,117.32324,14.0703125,66.621704,60.793945,30.038227,-24.028625,7.33374
423,111.95874,-39.727295,106.32031,9.638672,62.997314,51.38672,0.59931946,-45.987488,-25.42212
424,106.411865,-42.433105,109.24902,7.258789,55.16394,64.052246,0.8658714,-46.675842,-8.144287
425,100.059814,-48.146973,115.30957,14.206055,63.255493,67.9043,54.434048,-16.079742,32.203857
426,108.640625,-46.97583,122.42383,23.890625,73.25415,83.95166,70.0634,3.8961792,48.269287
427,91.46826,-62.302002,106.02637,4.2871094,52.13916,69.42383,20.066166,-29.130157,8.092773
428,103.311035,-52.120605,110.3418,-6.0390625,66.43518,68.898926,25.844143,-21.410858,8.623047
429,106.8833,-43.38208,113.96289,-2.5957031,71.57153,39.956055,42.80203,-19.526215,9.449707
430,96.29028,-57.15503,105.69238,4.0029297,54.317383,40.658203,33.396282,-32.484436,4.66333
431,107.86401,-51.15161,112.271484,14.910156,63.207886,80.89502,36.35017,-21.865784,15.013184
432,86.72974,-69.51465,106.134766,8.639648,63.48633,91.010254,26.792744,-24.45575,18.544434
433,81.89258,-68.761475,102.67969,-2.3417969,58.64209,79.36914,29.913578,-25.240784,21.46997
434,86.230225,-66.28027,114.134766,7.4375,76.5238,74.55127,72.88306,6.46994,50.158936
435,93.6499,-55.18213,107.572266,10.00293,62.65027,64.85596,53.609684,-11.7942505,24.319336
436,106.86694,-45.597412,105.02539,7.9804688,38.904175,54.13379,-10.601883,-54.754425,-24.990723
437,109.694336,-39.21924,105.42383,7.8740234,44.153076,52.813477,-11.985191,-56.132355,-22.48413
438,94.02197,-48.14746,120.25586,13.719727,75.97327,80.46826,61.600468,0.5638428,41.247314
439,93.12866,-57.475586,117.92383,17.591797,82.40161,88.75342,89.14198,20.763062,63.064453
440,93.7395,-65.990234,111.71582,6.044922,68.13623,77.57422,56.914165,-1.6756287,32.415527
441,84.28735,-79.63086,101.81055,-19.714844,57.31494,48.496094,9.837879,-39.93106,-15.671387
442,85.15039,-66.91406,95.96973,-15.162109,57.284912,48.03174,7.1365013,-39.745605,-17.292236
443,103.77295,-44.703613,111.10742,-1.9892578,46.246582,37.211914,21.208363,-37.617554,-0.64331055
444,106.5354,-46.35205,120.46387,12.025391,62.21167,67.28955,47.088543,-16.33255,29.27124
445,85.01904,-71.42236,108.30371,-11.091797,54.06201,65.84033,32.288006,-25.951263,10.9001465
446,76.17944,-77.184326,102.206055,-21.401367,47.126465,65.49121,13.949635,-38.244812,-0.15942383
447,93.25122,-53.349854,109.33496,-12.430664,61.625244,59.990723,40.55678,-22.43335,14.515869
448,85.38843,-70.539795,105.20703,-19.930664,51.509277,38.743164,38.948658,-31.391754,3.881836
449,100.97803,-52.8042,109.89258,-4.248047,42.98291,38.473145,12.547703,-49.818665,-15.459961
450,100.02368,-60.15503,108.37988,-16.304688,38.910156,47.52588,-13.374802,-57.599976,-26.231201
451,96.94629,-54.948975,106.61426,-14.741211,47.986572,58.004883,14.348118,-33.40216,0.2536621
452,89.60083,-58.833252,110.82031,-8.453125,60.35498,60.04492,48.450222,-15.902924,32.070312
453,89.039795,-63.442627,116.03418,-3.828125,60.645752,66.40576,57.61913,-12.576691,33.59619
454,98.99658,-60.390625,103.96582,-16.649414,44.563843,53.67285,12.114964,-47.92041,-4.413574
455,103.43164,-51.91382,105.762695,-17.501953,43.456787,48.41162,-12.459465,-58.596527,-22.223145
456,96.40625,-57.503906,107.89551,-16.695312,53.270996,55.385742,16.233486,-37.048523,5.1728516
457,92.50366,-58.156494,110.413086,-13.730469,64.17163,57.626953,61.19652,-10.126587,39.07617
458,77.1311,-76.95532,104.08301,-22.285156,46.38916,57.459473,42.128902,-21.03537,27.213135
459,76.36157,-80.34277,101.07715,-25.621094,51.94226,65.33789,24.2048,-28.593842,17.077148
460,92.54443,-54.459717,112.6582,-4.3291016,76.25403,91.461914,46.641285,-5.101288,40.766357
461,102.82007,-37.00952,105.56445,-3.852539,66.89429,62.779785,44.338497,-20.022247,28.83081
462,103.81616,-43.454834,120.92578,5.5810547,66.401855,62.63867,55.86083,-9.395416,33.164062
463,93.82617,-55.51123,109.38281,0.06738281,54.811768,70.0918,30.482365,-27.299438,15.727295
464,95.21118,-60.205322,114.618164,-9.563477,71.71057,86.671875,37.628216,-9.716339,35.114502
465,87.34326,-63.651123,106.91992,-27.416992,64.67334,71.28027,47.382114,-7.159729,42.38452
466,94.43921,-53.09619,114.65625,-8.120117,66.46741,72.36572,68.936676,2.38089,54.75
467,86.07178,-68.062256,103.92969,-14.794922,45.27063,56.15918,37.15893,-33.56076,15.471191
468,101.48413,-55.92163,103.552734,-8.90918,35.124878,48.08008,-13.795757,-65.84186,-25.90039
469,105.531494,-46.974854,110.98926,-10.399414,42.040405,51.99756,-15.502266,-62.00641,-15.949707
470,95.524414,-51.818115,113.12207,-21.03418,63.6687,61.177734,42.52985,-22.839203,28.9458
471,76.30591,-71.305664,106.77051,-16.014648,65.70886,70.518555,78.88428,4.869751,56.611816
472,75.0625,-83.39722,103.74609,-20.50586,56.187378,67.660645,53.637432,-13.061371,31.592041
473,78.63257,-78.93262,100.97949,-32.95508,48.813354,58.77539,7.7258797,-41.050842,2.8063965
474,79.89209,-78.2168,100.31445,-45.98535,29.119995,35.676758,-21.119263,-70.87622,-29.552002
475,103.48242,-49.17993,115.35742,-14.081055,40.49646,35.91455,8.244968,-57.138306,-5.32959
476,105.14526,-48.160156,111.11621,-8.655273,44.79651,46.97705,37.38782,-33.218933,14.358398
477,104.54712,-54.14502,105.12891,-13.295898,49.715332,70.12207,30.123722,-26.217804,19.561523
478,90.42969,-62.33911,100.72949,-16.972656,58.723267,85.76807,32.317463,-18.882416,27.282227
479,92.3186,-60.799072,106.17969,-21.703125,61.51245,75.10498,52.073376,-6.6851196,42.67041
480,98.67041,-49.38867,105.13574,-13.875977,54.33728,66.01318,54.872524,-17.86856,33.994385
481,111.72998,-40.23047,109.73926,0.8886719,44.178345,58.190918,14.611492,-44.459625,-2.213623
482,107.16968,-49.368896,102.506836,-23.81543,29.860718,34.398926,-22.361977,-70.22055,-33.47632
483,103.46948,-51.117676,107.81543,-25.725586,46.351562,58.370117,15.2331505,-40.15564,10.783691
484,84.43994,-64.39404,103.67578,-25.960938,54.920532,65.33057,61.155445,-9.605835,46.054688
485,85.52222,-73.74634,108.12109,-22.759766,52.8468,68.76074,66.715546,-6.9389343,46.28003
486,88.333984,-74.341064,98.168945,-25.342773,41.05237,67.51807,21.965733,-34.38333,12.124023
487,104.38452,-63.552246,103.37988,-34.4209,41.06421,57.109863,-9.10627,-62.254456,-20.880615
488,111.34912,-45.733643,106.987305,-26.91504,48.771484,35.59424,8.014614,-50.55893,-11.325439
489,105.4624,-55.44214,109.92676,-28.185547,47.247437,49.891113,44.446438,-32.51239,26.905518
490,97.92505,-65.10254,109.203125,-19.039062,48.78784,60.29834,44.062756,-34.16107,20.70337
491,108.98706,-64.663574,112.41406,-20.581055,47.850464,72.200195,22.577763,-38.978577,9.623779
492,88.41528,-68.04053,99.45996,-33.95117,51.846558,73.00879,28.776058,-25.50705,20.29126
493,89.44873,-72.968506,105.81348,-38.27832,52.477417,52.748535,47.780186,-17.866425,30.060303
494,113.610596,-51.971436,112.163086,-23.667969,39.244995,31.399414,29.505817,-35.844177,5.3952637
495,108.87891,-65.57617,104.44238,-36.885742,18.354736,19.49121,-18.983482,-82.49512,-38.975098
496,93.84619,-71.67505,98.68848,-37.6875,32.580444,54.034668,-11.398113,-67.196014,-14.856934
497,78.22095,-88.156006,94.600586,-57.18164,37.90088,47.0625,23.536098,-40.9599,14.288574
498,78.295166,-80.02515,107.12207,-33.9834,58.33008,69.97705,76.7979,9.011597,64.190674
499,95.47119,-68.448,106.75098,-26.631836,53.83142,68.70068,61.93549,-1.1073303,50.348633
500,99.63916,-63.86035,98.48535,-35.496094,34.286255,44.166016,-4.2076454,-50.56714,-9.26709
501,108.10498,-57.342285,103.18262,-47.38086,33.918213,21.672363,-24.705128,-76.4314,-38.681396
502,106.18848,-48.372803,124.41504,-31.591797,63.175537,31.136719,28.25362,-48.817505,-1.067627
503,85.63745,-69.48071,109.03027,-36.143555,51.464844,45.43701,58.125385,-25.13092,31.43335
504,82.48706,-76.7605,104.09082,-29.708008,51.64563,74.13623,57.340755,-8.257996,41.631348
505,91.35376,-72.5647,92.95117,-38.09668,40.661133,72.78174,20.774357,-26.174408,26.976318
506,75.586914,-86.80615,92.24609,-60.44629,38.956543,53.183105,16.833263,-29.412537,20.696777
507,104.444336,-54.69165,116.7334,-39.723633,53.850952,40.09131,45.44842,-19.24527,26.723633
508,94.12305,-71.00488,110.7666,-42.66797,32.65161,10.986816,13.999729,-61.35257,-21.706543
509,98.020996,-64.63281,108.416016,-40.81543,34.52588,18.28711,-11.138069,-79.88504,-38.43921
510,79.5791,-79.31348,91.74414,-57.123047,34.103027,32.69922,-1.6974869,-60.377625,-12.483398
511,94.25513,-58.49536,94.262695,-32.845703,45.215942,63.72998,50.112156,-10.305603,41.905518
512,91.91089,-64.694336,90.12207,-31.6875,33.376343,58.943848,50.2661,-12.211792,46.009766
513,85.07593,-73.55371,86.791016,-34.981445,22.321411,46.96826,4.040386,-47.176483,9.391846
514,92.33984,-73.84277,95.62012,-48.192383,19.883179,32.827637,-30.328056,-78.2395,-34.060547
515,84.71338,-74.68213,98.98047,-59.00586,29.056885,19.683105,-18.077827,-71.36304,-28.570557
516,84.24609,-75.43286,111.39453,-44.81543,55.91333,41.881836,46.532642,-24.125,29.16455
517,88.58252,-72.84082,102.90039,-29.18457,42.393433,50.956055,53.400562,-22.21402,34.914307
518,90.168945,-74.3811,92.83594,-33.572266,30.635864,62.50879,17.33115,-37.503723,15.678711
519,80.503174,-82.99463,87.36328,-53.030273,24.770142,55.933594,-8.990112,-55.81894,-2.4240723
520,83.521484,-69.92261,103.41113,-51.123047,43.95337,42.621582,19.254902,-37.22165,11.248535
521,89.76758,-68.90869,106.291016,-42.418945,37.357666,34.36377,24.872929,-39.17279,9.975586
522,92.50952,-73.6272,101.299805,-38.21582,37.89087,45.200195,21.08405,-47.61023,7.3825684
523,92.72461,-76.24194,97.95703,-41.57422,33.205566,53.330566,7.07333,-49.763947,3.0134277
524,80.32178,-84.18677,88.225586,-55.978516,25.30127,51.248535,6.1280403,-42.93219,10.689209
525,87.43213,-73.86841,97.14746,-46.134766,37.93213,56.756348,33.6879,-27.95288,33.342773
526,95.288574,-69.70703,105.93457,-32.86621,37.68225,56.83203,28.408115,-35.238464,26.314697
527,108.683105,-61.230713,103.336914,-36.765625,24.71814,27.342285,-5.140167,-70.17847,-21.966064
528,104.89722,-60.386475,105.20215,-35.13965,40.983887,52.683105,-2.2588234,-61.71109,-9.842529
529,78.35864,-73.92749,98.024414,-51.507812,41.687134,44.80371,21.369984,-41.46524,14.685547
530,77.8584,-70.40234,108.166016,-30.863281,50.373657,56.98535,70.20909,-4.03302,55.2063
531,88.80737,-72.14697,105.36621,-28.555664,43.243774,67.523926,48.015606,-21.084686,39.09912
532,82.22339,-80.72266,93.31055,-33.688477,25.994629,69.421875,-11.088139,-60.714966,1.642334
533,85.86279,-80.25244,90.38574,-60.371094,17.081787,31.474121,-32.791412,-85.109436,-28.282715
534,109.71582,-55.749268,104.91699,-41.152344,35.88733,31.02002,15.949741,-54.67871,-2.8789062
535,97.559326,-66.36401,102.387695,-35.32129,31.61792,36.07715,34.6459,-46.547028,8.975586
536,84.67798,-84.8772,101.30664,-37.42871,39.052612,53.53125,34.658733,-38.48459,17.82129
537,92.49414,-75.95874,100.97363,-47.88965,36.358887,58.743652,7.3727226,-43.36676,11.10791
538,78.30469,-86.468994,97.24902,-55.73633,32.572388,54.39502,9.379612,-39.862366,22.599854
539,92.063965,-68.84668,106.13965,-39.927734,38.259766,53.668457,30.579746,-35.036957,34.612305
540,99.593506,-71.1709,108.05859,-43.08789,28.93274,28.208984,8.767841,-61.98639,1.2243652
541,98.06348,-70.629395,108.43652,-37.948242,37.577637,41.518066,-4.1177177,-73.00751,-16.928955
542,89.59424,-76.5,106.19238,-50.126953,46.890137,55.947266,9.805637,-54.50827,2.545166
543,85.061035,-74.79199,101.25195,-54.049805,43.186035,51.466797,48.31798,-24.576508,39.43921
544,90.78027,-64.09277,108.381836,-28.472656,45.597168,67.024414,68.00072,-3.6732483,66.651855
545,91.82178,-70.62109,100.92969,-27.910156,30.69226,59.708008,25.561085,-35.155792,31.957764
546,78.66821,-83.4375,86.24805,-57.129883,17.172974,43.112305,-28.31562,-69.85129,-5.6225586
547,90.8396,-71.36182,101.94238,-50.905273,34.346313,35.4375,-9.622185,-65.113464,-9.753418
548,104.06836,-58.560547,112.07129,-43.635742,38.30005,21.990723,19.711262,-66.33484,-5.3498535
549,99.19092,-58.25171,105.19629,-33.458008,42.075806,46.265137,43.48569,-38.06424,26.943604
550,102.46582,-59.774902,93.916016,-29.71582,35.692993,65.006836,28.659908,-30.358276,29.455078
551,84.625244,-75.09839,94.96973,-38.356445,43.96704,71.140625,22.57574,-31.220062,30.084473
552,84.83154,-70.2561,98.015625,-40.686523,51.90381,64.76709,39.905598,-15.355652,48.245605
553,83.846924,-73.516846,98.609375,-40.216797,40.463257,43.186035,40.20754,-29.569733,34.756348
554,92.09277,-71.3457,98.26953,-32.578125,29.636353,28.917969,14.857227,-59.259094,-3.1083984
555,95.13013,-70.6958,92.39258,-43.112305,26.960693,29.754395,-7.6644363,-80.30551,-29.698975
556,87.05078,-72.829834,95.26172,-47.53125,32.82556,50.850586,12.967266,-50.290955,10.854248
557,80.16406,-80.26416,99.66211,-49.97461,44.311768,50.393555,53.411602,-16.449951,48.79297
558,74.860596,-91.86499,96.16699,-48.31543,45.48352,57.166504,61.02094,-13.779999,56.57422
559,83.385254,-86.229004,97.74219,-35.26758,37.9812,66.79834,18.267506,-39.396362,30.401855
560,85.98511,-83.27246,81.08496,-52.404297,18.488892,46.90576,-30.952398,-75.18582,-4.650879
561,96.32959,-70.660645,94.32715,-61.887695,26.122437,14.623535,-8.932434,-71.75125,-16.998291
562,108.60791,-53.885986,114.538086,-44.458008,49.35132,9.27002,40.15366,-44.933655,4.371582
563,98.038086,-71.46802,103.47461,-32.92285,43.837036,41.103027,35.198353,-41.42575,17.775635
564,87.65137,-79.59155,86.77832,-36.870117,36.470947,65.69238,10.113873,-45.553192,18.99707
565,84.4314,-78.50098,83.225586,-42.935547,25.111084,71.728516,-3.9342194,-51.434998,21.571777
566,87.96655,-65.70459,84.88965,-48.916016,25.317505,51.63867,17.185062,-39.499664,32.904053
567,88.78516,-65.966064,95.79004,-46.445312,36.546753,38.72412,36.817722,-39.26764,27.208984
568,99.93286,-62.67871,99.34277,-51.05078,33.83374,17.668457,-0.089157104,-72.009,-20.595947
569,103.2854,-55.99707,96.612305,-48.90625,31.603271,20.52832,-21.177399,-81.43228,-31.394775
570,99.8999,-57.918457,98.978516,-46.62793,35.493652,36.934082,2.9575233,-52.9682,5.7558594
571,93.28052,-62.722412,95.06738,-37.08203,38.729492,51.374023,38.340664,-29.62439,40.680664
572,98.17822,-61.677246,100.14258,-25.84961,38.04358,63.948242,32.05044,-33.898132,37.974365
573,87.93457,-73.420166,93.356445,-36.091797,35.432495,69.18408,11.651012,-44.819244,19.881592
574,95.168945,-72.227295,97.291016,-58.20508,37.840088,42.17041,-0.74664307,-53.7464,-4.218506
575,92.68555,-68.0166,103.075195,-65.21289,36.37024,16.264648,4.906193,-58.381897,-5.463379
576,108.31641,-52.072266,116.06641,-36.55957,33.046997,24.200684,12.666187,-57.525146,11.841064
577,92.394775,-72.41919,101.47461,-36.981445,29.552856,46.70996,2.8535194,-59.486847,8.030518
578,98.00708,-69.43628,101.62598,-42.55078,36.991577,61.715332,-5.670948,-62.262573,1.972168
579,89.791016,-68.70386,108.13379,-45.10742,47.766235,64.69238,20.073986,-37.473236,24.318115
580,85.278564,-68.44238,105.17578,-41.83789,49.396973,63.004883,54.0415,-12.645691,53.374756
581,89.62866,-67.76709,105.17871,-37.77832,42.156372,51.975098,33.823513,-25.971588,34.074707
582,104.62378,-61.487305,104.32031,-47.273438,21.515259,31.016113,-37.467857,-81.72449,-26.703613
583,104.20068,-62.09546,100.58887,-49.1084,20.220825,37.966797,-49.281708,-97.450714,-28.748291
584,87.0083,-75.16553,102.31348,-60.825195,38.97998,41.336914,7.4495583,-60.73111,5.4978027
585,85.86963,-71.98291,104.41016,-56.94043,41.87805,38.046387,52.249958,-28.100739,36.990967
586,92.38208,-74.50342,105.82715,-43.924805,34.810425,51.55713,36.951977,-32.08145,33.455566
587,97.64404,-68.07031,98.69336,-42.63965,24.678345,60.29541,-12.423855,-54.52414,6.2250977
588,96.298096,-64.60254,93.319336,-55.964844,11.777954,36.659668,-45.020992,-82.72452,-19.09082
589,102.19336,-55.246338,108.44824,-50.73633,10.786743,27.827148,-22.635128,-73.92975,-2.2946777
590,84.440186,-73.94873,109.22168,-49.433594,37.215576,36.48877,20.685177,-56.019867,15.724609
591,81.338135,-83.37085,102.61719,-51.16797,38.640747,41.223633,18.281834,-53.812958,4.6413574
592,87.26636,-78.69336,94.92383,-53.573242,35.45215,49.120605,4.7759056,-49.511993,7.0288086
593,83.13159,-71.68457,98.51953,-44.624023,36.55188,55.13379,29.18311,-27.746918,40.426025
594,97.25342,-65.4812,102.91504,-30.973633,24.12024,54.512207,13.701756,-38.872406,32.44702
595,104.884766,-59.00293,104.461914,-33.61133,17.950562,40.53076,-25.375141,-77.231415,-9.272705
596,94.14868,-71.56128,94.387695,-45.308594,15.54248,42.620605,-38.08539,-90.36066,-24.924805
597,86.796875,-72.93994,94.98926,-59.895508,36.412354,36.010254,2.731205,-57.857666,3.5268555
598,99.82202,-49.905518,115.65918,-27.223633,58.5542,57.813477,57.03136,-14.982239,50.470703
599,95.00464,-64.718506,111.703125,-37.088867,43.22058,53.831543,33.402996,-34.20392,31.997559
600,101.903564,-58.5459,106.978516,-34.195312,31.765747,55.884277,-18.351826,-61.73239,2.7885742
601,121.362305,-43.30835,120.708984,-37.533203,38.57068,54.26367,-19.49221,-59.693085,0.46533203
602,115.52881,-40.50464,112.950195,-39.78418,33.407227,45.60498,0.7931709,-56.670685,13.117432
603,107.03931,-56.071533,113.24512,-40.612305,47.8396,43.59082,33.541416,-38.931854,31.486572
604,93.3562,-65.72876,113.70117,-38.179688,50.18921,50.698242,28.155872,-35.4299,25.869629
605,102.0354,-64.46582,106.60449,-55.433594,41.18103,45.563965,-13.316864,-57.952576,1.3493652
606,106.18115,-55.721924,114.265625,-55.520508,50.4812,45.79883,-3.1507072,-52.014984,9.288818
607,99.84839,-63.0083,111.5166,-64.04199,41.75525,19.130371,11.03989,-56.587708,5.275879
608,121.11792,-41.891846,129.32715,-33.604492,51.970337,53.828125,28.353596,-36.63083,27.249268
609,110.01611,-57.07617,118.62012,-41.24121,41.484375,56.759766,5.174534,-46.819824,21.083984
610,105.15015,-62.30957,114.01758,-56.24121,41.527466,44.362793,-6.8766937,-52.125977,7.0612793
611,101.0979,-57.295654,115.17578,-52.12793,59.600464,44.237305,28.804478,-33.875397,22.335938
612,86.81665,-71.73193,113.390625,-52.714844,45.776123,31.641602,24.89883,-43.795776,20.606201
613,98.984375,-69.31421,112.74219,-54.835938,42.347534,27.947266,9.744198,-46.827423,10.8479
614,120.125244,-39.66382,129.25293,-29.004883,60.524292,59.91992,7.12817,-32.15561,20.951416
615,110.64258,-43.540527,120.60547,-38.978516,50.343872,66.396484,8.427471,-37.71219,21.374268
616,100.0813,-50.378418,123.22754,-35.6709,59.7594,67.6543,46.15272,-14.74884,50.026367
617,105.52612,-50.858154,121.38672,-38.70508,52.04431,57.84668,48.911503,-15.997742,45.615234
618,108.61011,-49.152588,120.33594,-32.788086,57.45215,66.94336,24.503567,-22.886078,37.986816
619,97.876465,-62.35083,109.737305,-55.90918,44.038208,48.776367,-14.805634,-48.926697,9.762695
620,109.45947,-48.758057,125.5918,-48.000977,62.101562,46.585938,18.763187,-29.37619,24.765625
621,110.5918,-41.354248,117.77832,-42.279297,46.078613,42.284668,30.426128,-35.05493,25.746094
622,118.13989,-45.12549,131.02344,-21.222656,63.47339,81.896484,46.834843,-11.240845,58.192627
623,108.92554,-53.21924,108.80664,-46.124023,36.941895,58.296875,-11.36438,-55.769928,11.226074
624,99.34717,-58.0979,112.84277,-49.007812,58.723267,67.16797,12.63879,-31.68512,28.393555
625,95.756836,-51.558105,116.4375,-46.489258,55.839478,49.722168,31.014713,-24.597015,35.274902
626,81.75586,-68.01367,121.5791,-42.635742,53.044678,38.410645,41.63464,-21.221466,35.21118
627,57.806152,-87.937256,105.12891,-46.447266,31.632202,27.734375,-0.5399666,-61.83676,-11.569824
628,29.301758,-113.3374,93.916016,-49.989258,31.769165,45.115234,-27.716969,-73.891785,-14.417725
629,-5.0808105,-132.63013,85.637695,-52.331055,29.40857,48.354004,-7.603039,-54.57547,12.354004
630,-41.66919,-161.59912,74.69922,-53.805664,24.66272,42.605957,18.54607,-41.8226,28.986572
631,-64.73535,-183.51343,69.94629,-58.185547,19.23462,36.88965,2.6542244,-51.26071,13.367676
632,-70.34033,-190.92651,73.828125,-64.50586,17.020386,30.878906,-26.916485,-70.095,-17.33252
633,-80.34204,-201.80249,71.28516,-81.02246,14.112793,9.684082,-46.499687,-88.66507,-41.08618
634,-79.818115,-191.01562,77.62207,-61.859375,25.69397,19.46582,-19.35587,-70.5444,-13.68042
635,-103.32202,-217.26562,73.91992,-54.953125,30.949585,41.431152,17.797077,-39.20117,30.706787
636,-116.70679,-235.38452,58.7334,-65.94531,15.25708,37.65039,0.37047958,-50.95157,10.855469
637,-126.69995,-247.63184,57.229492,-71.45703,18.788208,44.237793,-21.452656,-61.40448,-3.8535156
638,-136.5669,-251.09277,59.145508,-74.89844,27.974365,38.319336,-11.144009,-56.198853,1.6945801
639,-146.12573,-254.55933,62.02832,-80.700195,28.283691,18.379395,14.289013,-47.22278,9.825439
640,56.3667,-9.408203,78.61133,-1.9970703,63.093872,-0.7158203,-51.72738,-78.09009,-46.256836
641,45.00537,-12.756348,72.399414,-14.396484,59.468506,-11.510742,-27.714813,-72.34656,-42.473877
642,49.674072,-6.4731445,76.30664,1.4941406,69.6145,-1.4194336,12.064915,-52.41742,-15.821533
643,55.360596,-2.345459,72.15234,9.125,68.21423,11.970703,11.271084,-42.375336,-12.909424
644,53.75879,-6.612549,63.460938,0.16210938,57.25659,14.006348,-28.061607,-56.979584,-22.83667
645,49.13086,-8.548584,65.631836,-5.520508,61.872803,5.3779297,-31.054037,-62.944275,-27.126709
646,70.21387,15.094727,96.38867,7.3740234,82.997925,-16.66211,-3.9320107,-58.9711,-27.648193
647,58.418457,0.31958008,79.58984,4.901367,65.52161,-15.363281,-5.7049522,-74.16818,-40.24341
648,56.3667,-5.2995605,75.831055,8.432617,66.1272,12.488281,-11.313244,-66.2348,-32.019287
649,54.728516,-12.841064,74.37207,1.1435547,77.287476,22.50293,-14.581005,-47.325104,-15.170898
650,40.93799,-12.519531,74.5918,-2.5253906,68.68945,4.459961,-14.06868,-50.649048,-11.130127
651,50.252686,-4.8442383,81.32617,4.288086,72.27893,-13.184082,1.5945015,-50.550873,-12.389648
652,53.50659,-7.7353516,82.15234,2.1914062,71.885864,-30.723633,-14.247971,-75.138794,-45.868164
653,46.353516,-16.093018,61.282227,-4.3964844,50.224976,-22.425781,-46.91272,-101.36539,-79.555176
654,48.751953,-9.069092,69.484375,1.1054688,62.394897,10.209961,-24.65522,-67.79764,-39.806885
655,54.889893,-1.6948242,79.583984,8.977539,78.15698,12.235352,11.566769,-32.762634,4.288086
656,61.00659,7.729248,84.03613,14.87793,74.00049,4.370117,9.508854,-37.03357,3.7185059
657,55.70117,-1.3354492,72.09375,4.209961,60.441406,-15.09082,-33.605457,-72.30945,-48.270996
658,57.44287,0.068847656,77.84473,-1.4462891,69.43384,-19.10205,-44.35623,-83.08264,-78.71777
659,54.97998,2.9206543,72.225586,-2.3066406,68.94556,-21.282227,-17.473152,-71.40143,-68.60742
660,51.17383,6.638672,77.21875,13.595703,76.30176,5.32959,26.581661,-27.664093,-6.334717
661,52.077393,5.6816406,74.759766,29.483398,76.122314,25.240723,17.408619,-25.105927,3.8029785
662,54.68042,5.0092773,68.65039,25.145508,61.679443,15.395508,-41.406647,-62.974304,-36.74414
663,51.958496,5.857422,71.87598,7.451172,66.989624,-11.123047,-43.75725,-75.24661,-59.79834
664,44.871826,1.1437988,71.21582,2.1884766,69.352295,-34.861816,-15.667721,-75.67169,-72.27222
665,46.685547,0.1538086,70.2832,13.822266,67.9303,-20.597656,9.909634,-53.220123,-45.219482
666,55.15674,3.8676758,63.671875,32.456055,58.84607,12.293945,-6.521488,-43.44586,-24.845947
667,61.276123,10.482666,69.08496,27.813477,62.68811,28.131836,-28.7235,-50.335968,-26.77295
668,64.29224,18.60376,71.18848,24.601562,74.99487,23.200684,-19.920189,-53.554657,-26.17334
669,53.75171,9.438232,73.27051,13.306641,73.60864,-7.0668945,7.976246,-50.032654,-30.932861
670,55.847412,1.6650391,78.896484,21.760742,82.69519,-15.6171875,16.076412,-47.316437,-43.297363
671,61.026855,2.4467773,70.37793,31.500977,65.31958,-3.4082031,-20.417599,-56.97473,-55.788086
672,65.31079,8.44751,67.91699,15.505859,58.003662,3.2177734,-39.275063,-62.429382,-47.623047
673,56.896484,1.0402832,75.33887,4.598633,75.39612,2.0341797,-17.758629,-54.816986,-30.747803
674,50.956543,-10.2265625,77.88379,10.594727,81.0177,2.9995117,13.914036,-45.785156,-18.812744
675,52.58667,-9.987549,73.375,21.854492,72.15918,11.564453,5.060055,-40.708405,-27.074463
676,58.544434,-9.4748535,72.1084,14.75293,68.055176,-2.3901367,-29.762684,-58.289917,-55.11255
677,49.303955,-7.7111816,66.54883,3.0429688,56.951782,-19.24707,-36.31044,-68.19092,-59.390625
678,60.796143,3.6242676,75.63672,15.845703,62.196777,-8.4921875,-9.370308,-52.8591,-30.773682
679,64.62549,2.8830566,81.61621,26.844727,74.17346,-3.7993164,5.357502,-42.029755,-24.353516
680,62.93457,0.51538086,86.37988,24.25586,74.46692,10.510742,-17.089062,-54.75125,-40.524902
681,48.93213,-16.416992,70.19336,1.0712891,60.594482,-6.4506836,-42.716187,-73.164734,-65.02246
682,42.239014,-16.89795,66.94238,-2.6669922,59.827637,-15.569336,-20.022568,-55.966187,-46.941406
683,47.43994,-10.169189,75.58594,12.792969,66.3689,-12.489258,5.178608,-38.949615,-25.364258
684,67.84131,2.5004883,84.68848,26.40918,67.54736,-0.8930664,-7.0343857,-42.27002,-31.945312
685,60.284668,-12.35083,74.65137,13.105469,61.468628,-3.3671875,-50.480232,-80.87439,-69.32495
686,60.52417,-8.890869,71.603516,1.5917969,59.537598,-8.029785,-49.363884,-78.76871,-64.72876
687,59.244385,-3.1501465,81.80664,6.6660156,75.86792,-6.802246,12.065121,-35.485657,-22.789062
688,62.982178,-7.129883,84.115234,11.3046875,76.11267,-18.846191,24.867641,-27.384216,-20.057129
689,69.48755,-5.2001953,77.63281,18.0,69.28992,-8.8125,-14.487579,-51.532104,-50.09546
690,57.06421,-17.077148,64.91211,2.0664062,43.008667,-17.084473,-64.53895,-87.95325,-89.04736
691,58.902588,-4.338379,81.552734,16.15332,64.05029,-7.456543,-45.368877,-85.14688,-71.12598
692,44.128906,-20.358154,79.475586,14.43457,68.83142,-6.9155273,-3.5876617,-59.858124,-37.058838
693,36.07666,-32.73877,78.86719,14.735352,72.45459,0.21142578,8.661602,-34.982605,-21.986084
694,33.240723,-36.243896,68.66211,-0.421875,65.863525,-4.559082,-16.172802,-46.080566,-41.618164
695,52.097412,-11.190186,72.21387,13.038086,73.67651,-12.251465,-22.260906,-51.969696,-54.176758
696,43.98291,-11.045898,70.67676,10.337891,55.79834,-29.03711,-28.154682,-65.01111,-66.06348
697,48.6792,-11.82666,72.91699,21.862305,51.835327,-16.45166,-31.848755,-74.55682,-62.56787
698,58.16797,1.935791,82.99121,44.211914,69.80371,21.002441,-19.939632,-62.429535,-48.07715
699,39.135254,-16.904541,72.74805,23.168945,70.70239,23.573242,-22.182686,-46.840973,-39.513428
700,37.398193,-20.955322,67.05371,1.4033203,67.872314,-3.859375,-13.023865,-39.143402,-30.537354
701,49.17041,-7.6047363,85.45996,9.703125,85.91699,-22.891602,15.059277,-28.781464,-26.1333
702,44.661377,-25.23999,80.58008,1.5996094,67.25403,-49.60205,-15.100441,-61.81125,-66.964355
703,52.356934,-14.848877,86.046875,19.964844,69.28723,-15.62793,-37.53228,-72.28714,-74.678955
704,40.092285,-16.30371,72.82031,17.166016,77.93042,7.2216797,-36.810135,-68.46332,-59.20703
705,40.582275,-11.144043,75.62793,24.49414,80.64441,22.837402,18.322224,-19.287964,-4.9907227
706,51.619873,-7.496338,78.56152,30.601562,89.136475,12.402832,39.44237,-6.8306885,4.4262695
707,46.80835,-17.560547,72.07324,13.630859,69.80591,-15.47168,-4.1842957,-42.885254,-43.787354
708,56.597168,-11.733643,74.26367,7.7841797,62.695557,-26.251465,-43.551167,-68.04767,-78.3689
709,50.77173,-18.085205,75.802734,-7.5527344,55.863037,-42.9292,-57.37162,-81.8161,-89.95752
710,47.38159,-13.380615,81.6582,6.510742,65.848145,-29.21289,-22.579292,-68.699585,-60.061768
711,51.628906,-10.8828125,85.12012,30.413086,78.541504,15.629883,22.84225,-26.497559,-8.093262
712,55.82129,-13.130127,79.38867,26.95996,77.822754,17.33545,6.6219063,-31.60376,-22.63794
713,66.8811,-3.8996582,77.14258,16.139648,72.8761,6.658203,-17.58311,-40.840637,-40.361572
714,60.57007,-5.1992188,86.0791,15.041992,73.24158,-16.5542,-17.135517,-46.794067,-45.25293
715,57.691406,-8.279785,79.22266,14.432617,58.579468,-41.71045,-24.834892,-63.40503,-62.340332
716,46.07788,-22.975586,75.521484,12.238281,49.35193,-39.978027,-49.011707,-83.981476,-83.311035
717,34.084473,-39.39209,66.262695,3.6669922,51.745117,-11.506836,-44.75009,-73.3757,-67.82349
718,31.969727,-33.154785,65.12891,4.6845703,69.95093,-3.3144531,-15.237061,-45.9205,-43.135742
719,37.67505,-19.345947,78.37305,15.71875,78.5719,4.525879,20.210255,-21.01825,-10.696777
720,57.770752,-1.6977539,91.546875,36.76953,81.12341,10.475098,20.2541,-12.858887,-7.5043945
721,56.28662,-5.657959,77.12109,28.238281,43.96216,-19.02246,-57.218307,-72.74463,-70.45532
722,53.975098,-14.643311,72.924805,-0.015625,37.510254,-47.919434,-88.20347,-103.03323,-110.93091
723,54.906494,-8.093018,82.086914,4.1259766,75.39819,-25.346191,-25.75204,-60.997192,-66.90527
724,48.998047,-16.991943,93.2959,22.94336,91.121704,13.111328,38.710796,-11.722473,-3.039795
725,48.364746,-11.54541,85.06543,39.18164,80.01575,21.792969,28.20103,-12.861237,-7.8757324
726,41.603027,-25.154297,68.4375,12.615234,49.702393,8.7265625,-38.093327,-58.759125,-50.84326
727,54.452393,-2.9248047,76.11914,18.09668,56.467407,0.03955078,-48.344887,-67.50549,-61.184326
728,59.508545,5.715576,83.78906,13.250977,63.39734,-39.64746,-24.632092,-61.525238,-64.98584
729,56.103027,0.49438477,87.09375,20.873047,73.16577,-38.754395,4.4451866,-49.170685,-55.2959
730,55.631836,-11.622803,79.646484,19.170898,71.658936,-9.686035,3.6432915,-41.742004,-47.372803
731,50.600098,-11.428711,71.35742,21.058594,66.22571,17.555664,-15.882427,-37.210175,-35.198242
732,41.922363,-19.697754,68.8457,13.182617,59.001587,8.324707,-16.050713,-37.983337,-30.299072
733,40.89673,-17.278809,77.13379,14.542969,67.94763,1.3569336,5.483616,-33.80594,-22.835693
734,46.15454,-16.24878,80.430664,14.845703,63.84326,-22.992188,-15.926659,-60.885498,-58.73535
735,54.72827,-10.56665,78.39453,16.617188,64.83252,-29.849121,-37.97068,-74.01657,-77.907715
736,54.491455,-15.284424,79.14551,9.572266,66.22168,-13.776855,-24.21249,-56.463867,-61.74878
737,35.299316,-27.293701,72.55859,3.4638672,66.773926,-7.9262695,1.5616875,-34.848175,-31.25586
738,43.803223,-12.297852,75.24902,20.84668,68.49243,5.692383,18.577473,-21.934418,-13.476074
739,59.39087,-10.235107,86.58984,28.765625,69.1134,16.08252,-7.697029,-38.047577,-31.130371
740,53.519775,-8.499512,74.72754,8.736328,46.765747,-24.643555,-70.86627,-92.2587,-90.39136
741,34.553955,-25.135254,63.529297,-3.600586,41.68994,-36.27002,-56.468964,-86.46475,-85.10156
742,38.388184,-11.905273,75.271484,24.238281,67.15674,-9.179199,6.805744,-37.49591,-30.611328
743,30.412842,-28.508057,72.18555,21.743164,56.915527,-3.0419922,7.9126244,-35.69516,-27.592773
744,40.82422,-17.041748,77.22656,35.679688,61.87024,16.398438,-18.110443,-46.2706,-39.44873
745,23.906982,-38.84424,64.609375,-5.0585938,47.879517,-12.893555,-60.446712,-80.44272,-80.5022
746,34.360596,-22.41455,74.89551,-2.4082031,54.408813,-30.093262,-44.63553,-79.8259,-72.05127
747,40.84082,-14.756836,79.81055,11.873047,62.789307,-24.872559,4.6151924,-44.350586,-39.28711
748,48.696533,-16.482666,79.01465,23.079102,59.587036,-10.931152,-6.049488,-47.791046,-45.570557
749,37.441406,-29.80664,70.634766,12.707031,58.195435,-3.3461914,-42.749577,-67.74295,-62.794434
750,35.680664,-30.709229,74.600586,-1.1044922,53.078003,-6.0810547,-40.947933,-59.08069,-56.838867
751,31.073975,-27.182617,76.5918,3.7207031,58.35034,-23.095215,-15.844688,-52.99112,-51.6333
752,24.546387,-37.92578,80.331055,2.149414,62.425293,-36.035645,-6.566181,-59.686676,-64.275635
753,32.952393,-33.242676,79.91797,4.6552734,64.40015,-24.277344,-14.857376,-55.660156,-67.001465
754,30.755127,-29.768066,67.98242,-1.7207031,55.35901,-15.370117,-44.669987,-69.30719,-73.166016
755,30.510742,-28.61084,64.3457,-7.100586,50.63318,-20.145996,-33.18995,-66.78293,-60.56543
756,34.843994,-21.924316,72.83301,1.3291016,61.46289,-17.72461,-2.6163216,-45.704407,-36.523926
757,32.60913,-35.357666,77.07715,-4.330078,56.627075,-29.5708,-8.82357,-57.06482,-60.07959
758,44.73877,-26.51416,82.793945,5.176758,65.03186,-16.589355,-23.677513,-55.051727,-65.1958
759,42.15039,-22.70337,81.88965,4.3251953,69.572266,-9.733398,-19.343292,-47.212677,-53.98413
760,29.318604,-28.673584,83.21973,4.9375,73.03784,-4.3276367,0.970356,-35.527466,-27.540527
761,25.479248,-28.237793,79.81055,8.422852,64.29199,-8.811035,-0.41902924,-42.561127,-33.449463
762,31.347412,-29.610596,75.9375,11.327148,51.437256,-12.719238,-35.26976,-68.00278,-63.857178
763,37.624023,-24.318604,74.072266,7.2802734,55.24597,-19.634766,-42.49541,-68.440735,-79.21289
764,46.553223,-14.199463,85.17383,14.151367,63.69751,-21.124023,-19.300278,-49.692596,-53.949707
765,43.260498,-15.118652,85.762695,27.710938,63.18164,-4.3168945,4.285412,-35.770355,-30.18457
766,45.11084,-15.469482,78.572266,25.424805,62.834106,5.6313477,3.379078,-38.006104,-30.395508
767,41.6687,-15.911865,80.63867,22.930664,62.487427,7.6987305,-21.710201,-48.306458,-47.947754
768,25.956543,-28.475586,66.78418,-0.7890625,48.555298,-9.92627,-48.631336,-65.35651,-67.504395
769,47.34253,0.27246094,88.612305,22.257812,67.68921,-7.692383,-14.122738,-44.402527,-43.663086
770,53.43286,4.19458,80.862305,18.21582,41.686157,-48.558594,-38.231194,-82.93854,-84.00366
771,51.077637,-0.77246094,86.20117,30.53418,63.426025,-8.161621,-11.6110115,-50.906372,-51.57202
772,46.97876,-7.7507324,80.31348,17.220703,61.444824,10.957031,-20.68169,-40.1416,-40.952393
773,46.572998,-2.958252,72.83984,18.833984,63.17737,14.789551,-10.076092,-31.082123,-22.687744
774,46.53711,-4.7990723,80.02637,19.475586,70.84253,-2.8671875,12.245922,-31.515808,-21.350342
775,50.331787,-1.8427734,78.11914,26.19336,50.79065,-16.886719,-23.468319,-63.641846,-58.184814
776,53.484375,-6.3830566,74.54883,18.12207,45.329224,-30.336426,-57.500378,-89.9487,-100.57568
777,56.65454,8.348633,78.802734,16.911133,63.12854,-17.33545,-33.00673,-64.00241,-78.38916
778,48.292725,4.7680664,77.07129,17.46875,69.29651,0.42089844,5.1205406,-26.45465,-24.33081
779,35.52954,-1.199707,74.506836,22.191406,66.05444,1.78125,21.239925,-19.843689,-12.645996
780,46.35205,4.987549,76.79297,44.543945,74.26831,22.224121,5.891659,-30.713104,-21.478516
781,42.086914,-0.5175781,67.41113,26.051758,48.118286,-2.5297852,-51.740448,-76.84375,-74.910645
782,58.048096,16.28125,73.02637,19.493164,55.053467,-10.956543,-40.441223,-67.191895,-64.75708
783,54.28296,11.800293,70.42578,23.814453,56.097168,-22.753418,-2.4805489,-46.277344,-47.597656
784,52.75757,5.990967,81.49219,35.535156,70.14783,-9.260254,16.422146,-26.490631,-26.519043
785,51.91626,4.286133,75.28906,32.282227,60.63867,6.526367,-20.642216,-47.077515,-40.93799
786,44.301025,-4.8256836,69.57324,23.871094,57.997437,16.361816,-43.840317,-58.13388,-49.54297
787,34.046143,-4.006592,67.00098,9.944336,46.44397,-8.236816,-41.335205,-67.64459,-55.332275
788,57.265137,13.952393,87.146484,29.114258,62.95703,-10.852539,1.9777489,-43.25238,-37.304443
789,54.655518,10.226318,74.02344,35.166992,50.89734,-8.016113,-8.398964,-47.612854,-48.346436
790,54.004883,6.0393066,72.75,29.032227,58.5802,-1.8344727,-22.17532,-48.119904,-56.665283
791,40.99829,-0.7805176,68.06738,15.640625,66.77832,-2.1108398,-20.559193,-44.17871,-46.53882
792,50.29419,7.4936523,77.65234,22.079102,68.85913,6.5805664,-2.7929878,-33.848602,-23.486572
793,55.03369,10.237793,83.76465,33.725586,66.70947,7.348633,-5.3190956,-36.88568,-21.57129
794,58.918213,10.636963,78.66016,31.841797,62.020996,3.9257812,-19.185543,-44.573853,-41.233887
795,56.01831,7.211914,73.03613,21.012695,53.14868,-3.5371094,-38.848183,-57.474884,-66.08911
796,53.98706,11.197266,72.26172,21.504883,56.314087,-5.321289,-19.600758,-50.196136,-52.65796
797,51.40918,13.801758,74.19336,26.973633,51.72888,-11.737793,-5.349804,-46.399994,-42.463623
798,62.537598,17.790283,84.34473,33.679688,56.39807,0.1586914,-10.607151,-45.193268,-37.822266
799,48.61377,1.0361328,72.34082,23.131836,47.87854,10.953125,-44.92008,-59.220734,-49.385986
800,44.296875,5.0476074,72.62793,22.330078,60.87451,10.358398,-28.722546,-43.483917,-40.12036
801,45.23291,3.128662,77.54492,21.911133,70.07214,2.088379,5.425686,-31.083496,-30.41333
802,55.046143,13.808105,78.91016,28.65332,56.802734,-8.678223,-5.5490875,-53.0047,-51.78711
803,56.317383,8.474609,74.63672,33.788086,45.63806,1.8310547,-37.237137,-67.19824,-61.733643
804,34.19507,-15.705078,63.052734,4.7929688,36.490112,-6.0927734,-65.63283,-78.11368,-68.82764
805,43.038574,-2.291748,79.87109,10.949219,60.96338,0.5229492,-27.705513,-43.983154,-34.806396
806,46.61084,13.175049,79.288086,15.0078125,63.82068,-8.244629,4.2693825,-33.776855,-27.311035
807,52.927246,14.968506,84.81152,32.291992,67.994385,-3.6860352,9.382206,-40.650146,-38.559814
808,50.931152,6.659668,72.43652,19.72461,45.501953,-10.67627,-46.569542,-78.700134,-86.38599
809,38.937256,-0.7944336,62.996094,13.307617,33.76416,3.9169922,-62.47358,-76.588715,-71.23511
810,41.82422,5.9855957,75.03027,21.216797,59.314087,14.591797,-9.819759,-31.853882,-24.718262
811,45.351074,8.526611,77.43652,24.691406,54.63025,1.7504883,0.4513893,-32.725983,-21.510498
812,51.68335,7.3657227,85.10156,25.480469,65.35193,14.765625,2.472599,-27.03247,-20.856201
813,48.154297,-0.49291992,69.91992,9.276367,46.40149,-17.742188,-45.342415,-76.157074,-84.33472
814,52.656494,8.977295,76.225586,13.90625,54.557495,-5.4995117,-35.828236,-67.289215,-69.499756
815,47.81787,11.600586,75.92676,21.335938,55.881714,3.9248047,-3.9255142,-37.100952,-25.18335
816,39.909668,-3.5864258,69.87207,20.886719,45.066406,2.253418,-8.70179,-39.389404,-26.06372
817,43.073242,-0.51586914,68.09277,29.189453,44.100464,19.939453,-35.10254,-53.040436,-36.56494
818,53.329346,9.038818,73.93164,22.520508,47.866943,17.733398,-54.50901,-71.230804,-56.215576
819,55.50293,13.724365,75.25,13.701172,52.55591,-17.512695,-31.740063,-67.30783,-64.86279
820,53.816162,13.855225,82.3584,24.760742,61.493896,-14.847168,4.048458,-40.95392,-39.558838
821,40.63623,4.8967285,69.956055,28.091797,45.27124,-1.6005859,-13.550632,-46.407562,-36.998047
822,42.321045,5.4213867,67.37891,23.970703,49.835815,17.440918,-34.519615,-48.799377,-41.443848
823,40.52466,18.032227,61.4209,27.360352,45.37964,23.32666,-41.663067,-51.682922,-36.3562
824,42.549805,28.494385,64.46094,40.499023,50.891357,13.57959,-26.413265,-53.445923,-32.939697
825,39.5542,25.286377,68.913086,41.095703,47.41455,-6.715332,-25.112091,-63.628937,-49.277832
826,48.839844,28.796875,66.12109,42.203125,47.943237,-12.891602,-34.405724,-65.69379,-70.14502
827,47.55786,34.789062,63.314453,39.427734,48.850464,0.6645508,-42.790924,-59.045837,-57.950684
828,35.91992,26.60913,61.38379,41.79883,60.04309,28.056152,-8.127701,-25.49472,-3.2519531
829,31.240723,29.588135,59.612305,48.807617,57.671265,29.473145,11.008205,-19.444458,8.186279
830,34.541748,27.639893,61.13379,59.34082,49.703003,24.246094,-13.580311,-48.47113,-28.524902
831,40.035156,29.842285,60.484375,50.583008,45.800537,8.37207,-57.761257,-81.42215,-69.340576
832,40.07422,33.068848,63.384766,37.76172,45.63562,-0.41796875,-55.823685,-76.75256,-76.414795
833,46.892822,53.46411,71.76758,57.342773,57.19568,-7.5839844,-4.1143,-38.474304,-37.997803
834,43.37915,45.647217,82.953125,67.02246,75.17285,13.724609,28.02441,-9.450653,-0.13647461
835,29.450195,26.783203,55.708008,56.908203,49.850098,23.754883,-17.440914,-37.990814,-20.51123
836,33.777344,34.449707,56.38379,51.049805,45.17737,33.220703,-45.524597,-60.137177,-39.18872
837,27.131592,33.406982,61.92285,54.683594,62.174316,35.092773,-15.502968,-46.791107,-28.262695
838,21.191162,28.98413,69.50879,50.59375,68.95288,17.457031,16.008,-26.249481,-19.18628
839,37.732178,34.13916,74.07129,54.29883,63.73523,8.838867,1.7265129,-35.9339,-35.358887
840,31.14087,19.542969,56.2666,29.955078,32.203735,-17.46875,-61.120148,-77.42197,-74.71997
841,20.669922,11.281982,55.41211,22.173828,43.51758,2.8515625,-50.59208,-59.222565,-44.539062
842,34.58618,26.435059,67.8916,43.748047,57.891113,27.52295,-4.7197075,-29.084259,-11.694824
843,29.168213,18.789062,62.250977,45.49707,57.442017,24.18457,10.592197,-33.45636,-16.390137
844,32.972412,19.204346,66.0791,46.115234,59.619507,28.441895,-1.3540573,-36.257416,-27.63501
845,32.91504,8.668213,74.796875,32.479492,67.496216,23.833496,-17.34262,-36.832306,-38.609375
846,38.943604,23.158691,71.13672,19.229492,56.52649,-12.001465,-39.001167,-59.11133,-55.21704
847,41.558594,27.849854,81.103516,29.161133,57.158813,-0.7441406,-15.045803,-45.521667,-26.570557
848,44.046387,30.752441,72.25,35.521484,47.394775,4.930176,-15.74712,-47.388123,-26.394043
849,38.101807,17.047607,67.021484,24.72168,45.453125,15.037598,-36.304703,-56.40439,-43.194336
850,28.532959,10.893066,63.89258,16.84961,56.233887,20.089844,-24.25393,-43.183655,-35.133057
851,31.864014,9.682617,71.5332,14.776367,68.578125,11.973633,8.252201,-19.57019,-18.08496
852,37.44214,21.568604,78.04004,29.396484,65.09387,-1.4111328,13.225033,-27.48642,-22.625244
853,42.08618,24.561035,70.075195,30.713867,37.914062,-5.310547,-44.534115,-69.302,-53.061523
854,38.785645,22.501953,65.23633,37.904297,36.58423,30.784668,-66.72397,-67.260956,-42.50171
855,49.19629,33.08252,63.62793,30.973633,46.279785,26.733887,-31.130558,-47.253815,-23.04956
856,24.739502,14.629883,56.60254,16.026367,53.002197,6.4345703,10.203983,-24.625214,-13.4626465
857,27.21582,13.230469,76.64258,32.086914,73.90039,14.748535,38.15845,-4.8645325,-2.7595215
858,30.399902,7.634033,71.40723,26.664062,52.65686,3.3413086,-21.434845,-46.976135,-45.950195
859,27.214844,9.229248,62.039062,12.829102,41.44275,-9.414551,-68.23543,-79.82761,-71.38672
860,26.940674,12.924072,56.61914,17.53418,28.514404,-5.7856445,-73.92992,-91.699036,-65.90234
861,32.400146,26.698242,69.447266,35.751953,49.095947,9.175781,-11.62775,-49.355713,-21.0083
862,23.015625,16.117676,58.66504,27.892578,38.786377,11.205566,-5.274639,-33.94107,-19.435547
863,23.747314,8.285156,57.96582,22.40332,44.659058,21.091309,-18.488625,-35.91336,-30.057861
864,33.760498,19.951416,67.677734,15.421875,53.976562,6.434082,-24.73565,-42.29431,-43.839355
865,44.48633,38.107666,72.856445,20.838867,49.256226,-14.487305,-22.753311,-51.845276,-48.006104
866,40.537598,26.593506,71.0,34.72754,38.863037,-2.2382812,-30.536285,-59.561615,-41.871094
867,32.351074,20.112793,61.890625,32.194336,29.67395,9.495117,-56.61365,-72.087006,-53.520752
868,27.261963,19.7146,55.091797,27.762695,42.059692,29.66455,-41.324608,-46.874176,-34.59082
869,19.76294,20.153564,53.367188,29.953125,52.66919,33.976562,-6.5626297,-21.38147,-6.4831543
870,19.861084,22.165527,61.256836,31.111328,53.86914,17.279297,12.768658,-14.516449,-3.2666016
871,31.710693,32.036865,68.356445,41.024414,44.877197,-6.145996,-21.10154,-44.682556,-39.915283
872,17.85669,16.23291,50.000977,29.760742,19.490479,-2.5439453,-80.44403,-88.91861,-73.093994
873,24.176758,23.989258,55.88086,35.354492,35.907715,28.222168,-68.65822,-64.887024,-44.36328
874,14.955566,25.60962,67.265625,49.089844,64.96765,43.64209,-0.273304,-13.315704,10.935547
875,9.293213,14.885498,62.80664,46.557617,65.69861,43.52588,32.809734,-0.7430115,22.811523
876,9.7561035,11.3845215,58.541992,45.05957,60.588745,43.08545,6.3055305,-17.231903,-1.578125
877,23.307129,20.299316,57.58496,34.73633,52.52417,19.382812,-43.62507,-52.226807,-45.439697
878,39.147217,48.270996,65.274414,46.879883,41.089355,5.088379,-59.493332,-62.154205,-54.3479
879,29.605225,41.43921,64.55664,49.020508,35.182007,1.2128906,-43.102493,-49.248108,-29.861084
880,25.026123,29.41455,65.94629,50.342773,52.867798,28.765137,-9.424763,-22.571777,2.472168
881,27.5271,29.379395,58.90918,46.237305,60.772217,57.2041,-4.4239273,-14.921295,7.730713
882,21.191406,26.034424,62.615234,45.862305,77.45117,71.4375,7.3149834,-1.0128784,16.2229
883,25.786621,35.19751,63.239258,40.411133,68.083374,37.529297,1.9479408,-17.9711,0.043945312
884,26.861328,43.63159,59.882812,43.54785,49.327637,10.931152,-5.363228,-29.417816,-16.177246
885,36.25171,51.26172,60.28125,59.183594,37.058228,11.881836,-39.717358,-47.03723,-36.25537
886,51.052734,63.579834,60.884766,59.62207,32.317627,26.416016,-68.17788,-55.095062,-34.690186
887,33.990234,54.01294,61.29883,49.500977,57.6886,38.385254,-21.637264,-17.84201,1.9621582
888,13.413574,41.589355,62.124023,52.26465,71.572876,44.013184,34.512333,3.6454773,23.776855
889,3.9924316,31.043213,62.45703,56.416992,70.09485,51.5,36.738743,3.2598572,20.363037
890,16.031006,34.33667,59.03418,44.549805,61.143677,37.509277,-8.994457,-31.857788,-23.199707
891,18.913818,42.21289,57.552734,42.350586,52.614014,30.041992,-41.393795,-44.010193,-37.988037
892,18.09375,49.001953,56.96289,45.78418,37.813477,19.581055,-49.580063,-42.08661,-22.155518
893,24.492432,56.035645,68.913086,56.697266,45.0802,29.291504,-12.052864,-14.538452,10.216797
894,7.7700195,30.657227,69.55664,60.223633,65.68738,58.493652,17.778927,2.2810974,28.317139
895,20.312988,42.889893,65.41016,69.30762,72.89783,74.41211,9.369167,-0.063568115,13.738525
896,21.339355,49.42212,64.96973,60.78125,69.92932,60.5166,4.314335,-8.007538,0.3696289
897,7.706299,40.277832,66.30859,47.242188,71.90161,39.84131,27.54298,-1.999176,9.483887
898,22.797852,48.640137,57.643555,55.487305,53.213623,24.42627,6.9290657,-14.607422,-1.5185547
899,35.5459,56.284424,58.953125,62.08008,38.813965,29.459473,-39.99099,-32.765625,-20.23462
900,42.14624,61.364746,68.06055,63.77539,42.268555,50.7417,-53.806656,-29.592651,-9.30127
901,20.076172,41.21338,70.009766,45.23633,64.44702,52.331055,-1.1617813,0.11981201,18.036865
902,14.783203,39.376465,73.86035,61.02246,82.79431,70.17139,53.65666,26.880554,47.124268
903,-0.85913086,22.100586,59.82617,50.052734,67.33667,51.859863,26.975613,-6.655182,6.8269043
904,5.6730957,21.50586,45.54004,35.799805,49.077393,34.690918,-23.824768,-37.93878,-32.426758
905,17.99121,31.351807,61.771484,29.260742,50.390137,23.862305,-45.109287,-40.252808,-33.06494
906,26.233398,41.404053,68.73828,38.0791,47.02588,16.857422,-34.33304,-29.937439,-12.585205
907,38.375732,48.30127,74.73242,48.956055,42.738525,26.828125,-15.444962,-16.410187,9.252441
908,31.499268,30.676758,71.11328,46.442383,52.90869,51.182617,5.8306923,0.18496704,17.864502
909,10.560791,5.534668,57.655273,22.375,60.0636,48.90039,-8.743172,-18.099335,-3.8364258
910,13.509766,17.324951,54.6084,17.167969,61.972046,42.796875,-7.782131,-28.270233,-12.352051
911,20.440674,23.19165,70.16406,27.615234,74.68115,35.125,23.001644,-9.508118,4.2663574
912,27.179688,12.414551,66.49219,14.594727,49.356934,3.4765625,-12.157017,-31.037079,-21.141113
913,44.706787,31.464355,69.02051,24.104492,32.588623,-0.2421875,-60.17636,-57.025757,-51.259277
914,41.816406,30.367188,61.634766,18.112305,22.45288,14.94873,-69.83797,-60.849487,-42.802734
915,38.889893,32.43579,66.63867,30.768555,39.085205,40.836426,-10.672047,-23.805908,1.0214844
916,44.518066,37.46216,74.47266,47.97461,65.17432,60.0166,34.580166,1.3283081,24.567139
917,27.985596,13.54541,66.78516,31.953125,62.321655,48.293945,11.793812,-15.556244,4.6584473
918,23.044434,3.191162,59.385742,10.348633,47.52246,25.819824,-31.798786,-42.900696,-34.496826
919,40.878662,26.952148,67.703125,6.567383,41.94043,-0.016113281,-44.50066,-54.115417,-43.116943
920,54.717773,39.358887,76.56836,10.4140625,34.546387,-15.22998,-27.083546,-47.91873,-36.3667
921,56.781006,38.451904,70.18555,27.182617,30.133057,16.662598,-11.217308,-29.14441,-12.4453125
922,38.069824,18.945312,59.134766,19.699219,23.365479,30.228516,-32.64061,-39.843872,-19.773926
923,24.536133,3.8657227,62.351562,5.3447266,46.110962,39.373535,-25.900673,-33.505432,-15.553711
924,27.177246,8.011963,67.2832,4.5009766,63.19153,32.18994,1.4843483,-22.535187,-7.401123
925,40.270264,27.02002,83.31641,21.34375,65.4729,20.798828,11.624065,-24.8638,-13.718506
926,49.114502,27.115479,79.44336,25.205078,45.50293,11.649902,-14.935852,-36.167694,-28.297363
927,51.264404,33.479248,66.197266,17.829102,30.896729,18.35205,-46.395958,-47.784973,-36.29248
928,55.064697,36.91992,68.91113,8.142578,30.910278,24.544434,-39.246788,-41.10489,-20.974121
929,43.045166,26.18164,75.59766,2.6835938,44.46521,18.57373,-2.4106941,-23.487152,-3.685791
930,22.603516,3.4291992,66.052734,-0.099609375,41.178345,9.748047,4.6597176,-30.123138,-19.74292
931,22.814697,-4.1625977,66.96094,-4.6875,45.42639,19.164062,-22.622028,-41.970123,-34.10083
932,38.138428,8.634033,75.47266,-2.515625,50.212646,22.63086,-38.69118,-48.318237,-37.720947
933,46.622314,16.195557,74.43848,-10.295898,46.949097,2.696289,-31.441992,-46.84131,-36.651367
934,30.523438,7.4399414,75.39844,-2.2050781,42.617554,14.412598,1.707119,-20.0737,0.54467773
935,45.939697,21.245117,87.66797,4.379883,50.36792,21.656738,0.955616,-25.985199,-5.7441406
936,41.636963,7.0651855,74.055664,-17.914062,39.96472,11.34375,-30.68267,-49.847748,-41.404297
937,31.22168,-2.4909668,71.8125,-24.013672,43.604004,9.060547,-37.951874,-52.596466,-43.990967
938,32.145752,5.531494,72.14844,-10.658203,43.151367,11.465332,-15.710926,-33.006927,-17.30127
939,42.351074,15.490967,74.44922,7.5634766,40.38513,26.15918,3.403637,-15.82196,4.576172
940,36.893066,3.4553223,67.70801,-0.31054688,35.33557,29.044922,-22.110867,-35.05304,-17.47168
941,31.074463,-4.4763184,63.92383,-22.9375,28.890747,7.038574,-52.236473,-63.55948,-51.544434
942,36.13916,5.290039,76.97754,-26.436523,51.615845,11.638672,-16.546478,-38.441437,-21.894775
943,32.27539,1.8361816,81.82031,-18.263672,59.94922,14.083984,23.788403,-13.221954,7.460205
944,20.042236,-12.200439,61.63086,-18.436523,40.18396,14.830566,4.180279,-18.651215,0.4074707
945,47.714844,15.314453,69.240234,10.467773,32.101685,41.620605,-28.30016,-33.589325,-12.0078125
946,39.9292,10.587158,65.67871,-3.928711,25.242554,24.02246,-49.233715,-50.734528,-36.22705
947,30.52002,4.068115,72.200195,-19.410156,33.93152,16.697754,-20.995407,-43.818268,-26.47168
948,36.308594,10.908203,83.50879,-10.556641,47.042725,10.283203,10.361103,-26.257812,-6.9543457
949,36.4292,5.2348633,78.89551,-16.706055,48.00049,6.4873047,0.080467224,-29.048676,-19.74121
950,25.422607,-6.5964355,69.00195,-20.061523,42.86621,8.760742,-29.68605,-46.71405,-41.57129
951,44.41992,15.109863,69.490234,-6.2070312,41.73889,20.637207,-33.468193,-53.70752,-33.18994
952,40.08618,21.423584,66.125,-1.1113281,26.887695,14.123047,-10.589111,-38.673462,-11.519287
953,47.02832,20.901367,73.12109,6.504883,31.577393,21.773926,5.831005,-20.34134,-0.14672852
954,37.974365,9.738037,65.143555,-2.9199219,25.165405,25.987793,-28.805843,-43.9357,-24.26538
955,33.224854,8.375732,71.59766,-15.047852,39.423096,26.925781,-30.507568,-44.1308,-23.489258
956,36.002197,8.165283,83.93848,-21.97461,57.65381,11.752441,1.1457253,-33.21402,-18.0896
957,40.833984,19.166504,90.24609,-5.0439453,58.497314,14.548828,23.078426,-21.67923,-3.842041
958,45.909424,12.591309,82.85156,1.9755859,47.835815,14.834473,-1.9215927,-30.251495,-16.873047
959,55.90454,20.238037,75.70703,-1.578125,30.055176,19.566895,-41.802788,-48.70697,-34.46216
960,52.28955,17.024414,81.51465,-2.1113281,40.624756,42.567383,-17.178276,-26.039886,-5.4023438
961,50.833008,23.965576,91.42871,5.930664,56.84204,43.84668,26.643497,-5.2769165,20.005127
962,37.809814,7.1220703,93.177734,2.9824219,58.81494,40.84912,39.207973,-3.4977722,15.979736
963,34.421875,2.5251465,84.42871,-5.176758,53.333008,35.284668,3.5036278,-26.35907,-13.61084
964,35.082764,11.389893,79.46484,-5.3720703,50.101074,36.185547,-18.041843,-34.0636,-26.850098
965,53.909424,33.14917,82.833984,3.9355469,50.790527,32.128418,-5.4310684,-24.103607,-13.539307
966,53.084717,31.151855,94.74512,11.477539,51.04419,26.878418,23.138218,-11.019348,8.222412
967,53.2146,25.689453,92.793945,25.113281,59.421753,61.237793,37.609676,8.554596,31.117188
968,36.98706,11.725098,79.24609,6.140625,49.384155,55.242676,6.002239,-12.65863,4.182617
969,45.603516,17.009766,81.93652,-0.30664062,54.966553,56.120117,11.698452,-8.723022,8.931152
970,47.340088,30.4729,88.04492,1.6035156,57.147705,44.75244,37.72195,6.5506287,23.073975
971,44.27539,23.834229,83.06641,0.49316406,43.43347,16.48877,19.317707,-19.458435,-5.9973145
972,52.97876,32.082275,88.16406,8.839844,44.569702,19.54834,-12.122368,-38.742065,-28.947754
973,43.898926,18.393555,86.36914,-2.069336,40.652954,24.692383,-22.98441,-35.43988,-29.53955
974,55.259766,35.51758,92.450195,12.394531,64.916626,56.530273,27.527622,9.957794,23.155518
975,45.730957,25.042725,95.00586,9.780273,64.85498,59.51367,58.71052,25.939667,46.697754
976,49.064697,26.681396,87.19238,13.599609,49.96692,60.53711,33.174458,-1.3752441,25.07959
977,47.301758,14.50415,80.32617,-5.024414,41.10327,38.320312,-10.403397,-37.60968,-24.664062
978,47.14917,17.107422,78.16797,-19.950195,35.748047,12.395996,-28.951824,-48.604828,-45.540283
979,49.31372,28.74585,80.11328,-7.5283203,54.208496,17.95166,15.106831,-13.523712,-5.300293
980,60.881836,34.075684,101.083984,9.494141,61.35022,41.282227,48.581936,17.380585,35.185303
981,51.047363,19.354492,78.78906,3.8417969,42.175537,56.354492,26.891827,6.092682,26.636719
982,53.353516,22.966309,76.890625,-2.8076172,35.756104,63.45166,-4.213402,-14.932404,4.649658
983,59.31299,34.354736,84.325195,-5.7978516,46.285156,46.768066,-0.9113312,-21.333588,-3.597412
984,52.96924,29.74707,90.51953,-10.181641,50.642334,24.898926,27.03944,-9.468536,6.39209
985,69.23218,37.8125,100.32422,-0.6621094,51.475708,16.344238,21.287663,-17.380798,-5.046631
986,53.314697,9.773682,83.85547,-19.56543,29.56836,9.912598,-25.458775,-48.04373,-30.82959
987,50.917236,14.944092,83.421875,-15.213867,41.031982,40.331055,-15.931915,-28.492493,-5.336426
988,37.63037,0.97924805,82.44043,-23.70996,42.064697,41.0166,12.412579,-9.5052185,16.260986
989,40.697998,3.2006836,93.646484,-13.318359,54.83899,46.05957,43.345516,2.93161,33.033936
990,48.246338,7.7128906,91.109375,-13.922852,40.77893,31.848633,5.3870277,-25.4039,-0.3173828
991,55.039307,14.119873,82.83203,-25.40332,26.593384,20.89746,-33.539642,-51.329254,-29.591064
992,44.822754,10.205322,83.79199,-48.53125,29.840454,0.17919922,-34.70753,-56.729187,-35.001953
993,42.124268,7.5913086,92.93457,-30.698242,55.216675,15.727051,26.108982,-10.065918,15.360352
994,40.191162,8.371094,96.29004,-4.484375,56.385254,41.75244,48.507183,8.409515,38.020996
995,43.560547,5.1916504,88.6709,-10.017578,44.456543,47.083984,14.904858,-14.57962,12.55127
996,36.053223,-2.7912598,78.08887,-23.738281,31.722778,40.08838,-18.268532,-41.8013,-15.248047
997,41.746582,5.584961,78.9541,-28.597656,29.452026,27.632324,-8.398422,-31.746948,-6.327881
998,59.832275,23.43164,89.61035,-10.606445,37.86499,26.300293,30.53629,-0.1399231,22.201172
999,54.558105,10.908447,91.475586,-21.710938,34.975464,17.36084,15.3687935,-17.737885,3.314209
1000,57.966064,14.969482,90.487305,-27.691406,40.140747,24.774414,-14.806847,-38.67163,-22.692383
1001,42.813477,-1.171875,80.66406,-45.19922,31.936768,22.972656,-19.85955,-46.60376,-18.665771
1002,44.68164,12.606201,92.51172,-27.112305,48.107788,39.051758,22.335186,-11.27533,17.198486
1003,39.378906,3.0646973,79.30176,-30.529297,34.552612,23.811523,24.378819,-17.126648,9.795654
1004,72.48535,27.629883,96.05762,-15.15332,39.968384,29.802734,-2.3812103,-23.98172,-6.4436035
1005,63.621826,18.097412,90.796875,-25.161133,28.64563,28.324707,-36.73822,-52.435974,-26.472656
1006,57.068848,13.113281,87.95996,-32.5,35.635376,27.012695,-10.559158,-38.371704,-6.5705566
1007,43.548096,5.346924,94.109375,-27.685547,44.297607,26.89502,31.877865,-14.156769,22.192139
1008,41.125,4.6765137,94.52344,-8.105469,51.393066,45.547363,41.76849,-1.9956665,26.510986
1009,33.30493,-16.5979,78.94629,-29.425781,32.74939,40.30078,-10.238945,-38.120636,-16.095459
1010,38.63745,-5.1086426,78.56738,-37.370117,29.203857,25.856934,-27.53143,-50.07367,-28.537354
1011,43.26587,3.9763184,85.63281,-35.13965,30.39209,11.800781,-2.0838737,-34.05478,-8.194092
1012,59.16919,16.988037,90.24219,-28.485352,21.523193,11.8828125,1.4871254,-34.66739,-0.20117188
1013,51.097412,1.9375,88.586914,-19.530273,28.110474,32.933105,2.5353203,-32.509796,3.729004
1014,51.69409,-5.026367,82.61133,-37.996094,25.609253,24.743652,-18.902008,-47.45514,-17.718262
1015,38.319824,-4.3808594,78.228516,-52.450195,26.529175,8.832031,-9.699459,-46.052917,-20.488037
1016,44.41626,-0.94262695,85.774414,-36.083008,34.62268,23.746582,20.88013,-24.437927,4.3981934
1017,39.30493,-2.831787,81.70117,-31.117188,38.03247,27.870117,20.857319,-22.04776,6.496338
1018,41.380615,-6.0578613,81.581055,-41.092773,21.585571,20.564941,-23.38639,-44.81488,-18.57129
1019,39.18286,-3.0043945,76.53223,-40.38379,27.070923,28.074707,-30.034119,-53.66278,-19.280762
1020,35.804443,-6.4716797,78.41797,-50.089844,26.79773,11.092773,-0.6241722,-42.441864,-9.446777
1021,44.04126,-3.9226074,93.4209,-31.41504,39.055176,16.889648,39.23415,-13.60379,15.229248
1022,48.12671,0.123046875,90.256836,-25.298828,42.56201,32.944824,30.21397,-11.500092,12.938477
1023,45.604492,-7.491211,83.46973,-38.682617,37.662354,34.942383,-5.928417,-32.776672,-5.4819336
1024,46.12671,-8.112549,83.96777,-49.521484,32.281128,25.775879,-12.166843,-45.78305,-6.541748
1025,43.81665,-2.017334,88.32617,-43.58789,32.375977,18.583008,7.126499,-35.47409,5.854492
1026,40.664795,-13.729492,86.734375,-45.185547,27.662231,5.4052734,16.788631,-32.412323,-2.227539
1027,46.259766,-13.256836,95.22656,-45.368164,37.4823,15.316406,9.64468,-33.93283,-15.188965
1028,41.495605,-17.711426,88.041016,-50.186523,33.875244,28.666504,-4.904537,-39.33145,-17.587646
1029,41.306885,-16.808105,89.288086,-53.55664,39.479736,33.086426,16.46326,-29.004395,2.8891602
1030,48.36255,-5.4768066,88.55957,-43.16992,31.127563,30.699219,21.506382,-28.929962,17.590576
1031,38.05786,-13.8125,85.09473,-39.66797,31.936646,32.243164,7.946026,-35.740753,10.289551
1032,44.91455,-12.689209,88.63965,-50.94043,37.83557,22.356934,-10.143631,-46.185272,-12.929443
1033,34.909912,-13.050049,82.80859,-64.20508,32.065796,-1.1689453,-4.7308273,-41.953857,-20.370605
1034,49.602295,5.9902344,96.00195,-41.967773,39.142334,5.794922,25.26447,-24.841034,3.8676758
1035,57.097168,9.909668,96.2666,-32.532227,25.964722,13.129883,17.943272,-42.589966,-3.4206543
1036,61.686768,15.138672,89.84766,-20.95996,24.650269,33.371094,3.4214363,-48.41513,-11.104736
1037,41.724365,-0.8845215,79.512695,-55.948242,28.338867,24.80371,-11.755573,-47.04602,-10.352295
1038,37.020264,0.49487305,90.74512,-50.93457,54.228516,30.899902,32.7599,-12.060669,24.823486
1039,33.719482,-2.7441406,87.078125,-48.132812,48.368774,11.722656,45.8055,-14.750366,16.499756
1040,52.572266,11.286621,92.759766,-33.773438,39.537354,15.286133,25.846088,-30.148804,-2.0966797
1041,51.398193,7.4248047,80.86133,-44.594727,15.050903,15.168457,-31.17023,-70.807526,-39.409912
1042,44.068848,7.192383,76.015625,-43.220703,18.197632,23.49707,-22.142654,-61.448273,-27.229248
1043,45.888184,10.86377,84.487305,-26.37207,39.987793,42.14746,31.63319,-20.016327,27.886963
1044,49.759766,12.795166,93.9375,-18.667969,54.499878,51.885742,63.423374,8.060364,53.63916
1045,48.26416,1.4135742,89.44531,-27.52539,48.359863,45.6709,29.780216,-17.772064,22.58374
1046,42.50122,4.543457,83.18555,-41.051758,40.421997,22.686523,-11.092293,-48.264587,-19.490234
1047,38.16284,9.172607,76.737305,-53.07129,30.658691,-0.73583984,-14.368015,-58.78589,-33.49707
1048,42.4563,14.148193,83.9209,-40.573242,39.896973,9.375,21.908108,-37.55902,-8.453613
1049,50.19043,20.564453,91.200195,-14.829102,48.788574,45.867188,46.88808,-11.180481,33.75537
1050,38.25879,12.918701,75.42676,-22.202148,36.450928,51.818848,13.770344,-29.380737,17.583008
1051,33.804443,8.175537,76.44336,-37.65918,45.858276,49.86377,7.164341,-28.115448,14.966064
1052,40.13672,19.868896,85.55762,-31.41211,50.88562,37.0625,27.964542,-21.244476,20.857178
1053,33.621338,20.493896,78.0791,-31.394531,40.73242,6.3305664,27.420048,-34.67688,-3.6262207
1054,42.419434,26.40332,80.20996,-17.11914,37.06836,22.802734,15.475849,-36.05301,-6.0756836
1055,46.49243,36.40674,73.728516,-15.592773,30.134521,52.850098,-1.4020271,-33.4877,8.541504
1056,35.075928,25.211182,79.38281,-18.433594,40.16394,60.319824,23.762081,-13.600128,35.322266
1057,28.643799,28.307373,76.862305,-22.192383,40.5343,48.847656,43.82523,-8.828064,39.500977
1058,38.889893,28.850098,83.149414,-3.5683594,49.005127,51.899414,44.355747,-9.578949,38.513916
1059,43.255127,29.492676,83.55371,-25.604492,36.260864,26.033691,-10.684341,-56.08322,-21.598145
1060,45.64453,35.194336,77.51172,-31.94336,30.010498,12.325684,-25.090157,-66.69296,-38.36133
1061,42.766846,33.565186,80.24219,-29.88379,42.18567,25.626465,20.854519,-27.720154,7.180664
1062,43.2937,27.120361,88.87207,-13.926758,54.5437,46.71045,64.964096,11.766235,59.557373
1063,36.87256,14.230713,82.17383,-18.350586,45.385986,49.277344,44.66611,-1.1714783,44.49048
1064,41.911865,19.307861,80.48047,-23.71582,39.567383,53.953613,10.132725,-25.350891,22.08496
1065,39.470947,17.655273,80.81543,-38.75293,42.80603,33.049805,0.0838356,-44.779266,-2.611084
1066,37.760986,17.21997,86.54297,-42.879883,39.178345,11.097168,13.880543,-39.386566,-0.6713867
1067,43.293213,21.442383,80.038086,-26.392578,35.806152,11.831055,28.860607,-30.50821,2.3364258
1068,50.67041,20.95996,80.61328,-26.47461,33.760498,24.861328,14.385502,-38.747528,-6.1118164
1069,44.42456,8.532959,78.96582,-38.16211,40.265137,47.895996,12.305988,-30.665222,12.556152
1070,50.421143,17.615723,82.200195,-37.768555,44.531616,47.231934,34.5423,-15.399658,32.979004
1071,50.679688,22.200195,88.82422,-24.27246,45.22888,52.78174,50.095264,-3.1460266,51.67041
1072,60.37622,21.318604,86.0791,-20.545898,28.00415,43.456543,15.864506,-24.636505,28.542969
1073,64.63989,20.925049,84.60742,-34.41504,24.081543,27.792969,-24.229218,-57.37433,-17.690918
1074,70.03076,31.363525,92.018555,-34.375,45.730225,22.464844,0.32739258,-47.14206,-19.207275
1075,51.30078,24.863281,87.72266,-23.953125,61.428223,42.185547,58.28639,-5.0202026,35.015137
1076,46.206543,13.94458,92.9209,-21.259766,61.71411,58.074707,82.84985,19.516296,65.2937
1077,39.646484,5.8669434,79.103516,-30.333984,43.425415,63.052246,38.275547,0.071899414,47.406006
1078,40.58911,4.614502,77.52246,-43.21582,26.22876,54.875977,-17.415573,-41.372375,16.773193
1079,54.51758,14.914551,77.64844,-48.444336,23.024048,29.32129,-21.11761,-52.246735,4.39209
1080,62.35791,23.936035,95.93652,-33.79883,39.406006,27.265137,24.447521,-26.499756,22.591309
1081,64.17505,18.191162,93.612305,-46.871094,44.519165,13.327148,43.14979,-20.455261,13.2751465
1082,62.472412,8.341553,88.97754,-36.166016,50.023315,39.938477,32.621815,-15.9652405,22.320312
1083,56.49292,5.1953125,84.77734,-38.23242,54.322144,54.8584,27.570293,-11.394775,35.17627
1084,47.64087,1.9040527,84.77051,-42.160156,58.847656,50.344727,39.69743,-10.654755,45.273438
1085,49.07495,9.514404,90.447266,-31.444336,56.996338,47.848145,36.160175,-17.09729,44.355225
1086,48.332764,-0.022460938,80.72949,-41.00586,35.901367,28.528809,0.0020828247,-43.528137,3.863037
1087,65.04932,16.985352,87.68945,-43.844727,32.036865,18.887207,-21.25048,-53.46692,-22.44458
1088,68.49365,25.25415,87.05859,-41.043945,31.988403,22.947266,-1.4444046,-42.20395,-1.6279297
1089,57.63452,17.933105,94.58789,-37.185547,54.029175,35.246582,46.040356,-9.900848,43.289307
1090,56.921875,7.3842773,93.00586,-34.941406,53.245483,39.554688,52.39522,-8.763977,47.45215
1091,45.06494,-2.1791992,80.37402,-47.124023,41.52661,46.44629,11.960918,-29.775269,24.670898
1092,51.52173,-3.7617188,78.461914,-59.782227,46.021362,40.766113,-4.4156837,-42.450592,7.850586
1093,58.607666,11.29834,78.50488,-55.770508,40.69629,14.142578,-4.438057,-51.59131,-3.3571777
1094,68.4624,20.748047,89.072266,-44.248047,36.890747,3.7827148,14.641277,-48.927948,2.7368164
1095,66.74512,11.264893,88.600586,-44.103516,35.717407,18.713867,18.487492,-34.791687,9.9104
1096,57.47339,-5.185791,75.10254,-63.585938,24.79712,15.938477,-17.913094,-55.924286,-7.7854004
1097,58.389404,8.515869,81.16797,-54.750977,44.78772,48.182617,10.566853,-21.237457,33.351807
1098,57.930176,5.0012207,88.91699,-40.810547,53.083008,53.414062,36.904247,-14.409637,49.500977
1099,54.79883,-0.2487793,87.49902,-46.68164,46.049194,34.516113,23.181484,-35.65335,23.16504
1100,62.04956,1.4880371,86.950195,-51.450195,38.86206,17.59668,-17.011044,-62.942566,-19.91626
1101,57.737793,-2.0144043,82.02051,-64.01074,37.68701,15.734375,-29.068123,-62.034058,-19.23169
1102,62.04077,13.014893,88.12109,-51.967773,54.580322,27.740234,18.283955,-25.901459,25.819092
1103,69.058105,14.47876,94.59863,-42.490234,57.015747,33.925293,47.601322,-8.535522,45.301025
1104,65.2478,1.5493164,88.4043,-39.32129,49.60376,49.271484,35.49439,-18.678802,40.753174
1105,60.3562,0.826416,81.98633,-46.04004,38.423218,47.42578,-10.6818695,-48.210052,7.739746
1106,62.016846,-2.1091309,81.78418,-60.354492,30.701172,24.69336,-32.952003,-65.91519,-10.918457
1107,67.69458,6.560547,87.049805,-61.64453,37.107056,9.521973,1.0442238,-45.960114,3.9909668
1108,74.348145,13.68335,98.24414,-40.67871,52.063232,28.167969,43.739605,-18.750275,35.52124
1109,72.16333,10.007568,81.7666,-41.6709,35.660645,26.441895,10.319752,-39.27365,9.912109
1110,63.17334,-1.828125,83.237305,-47.618164,43.37378,41.229492,1.0783424,-33.37567,11.306885
1111,52.874268,-1.5856934,78.16992,-66.49121,36.45276,28.62207,-6.636963,-42.87201,12.475586
1112,54.098145,-0.7050781,84.19531,-59.882812,41.02234,20.379883,6.3417473,-40.87442,19.335938
1113,57.291992,-5.4313965,88.85742,-56.68457,37.788574,7.338379,-8.863182,-59.384827,-8.168701
1114,62.007324,-0.5395508,90.93848,-50.598633,44.407715,16.918945,-19.881557,-70.28058,-25.322021
1115,55.465332,-3.2832031,78.05762,-55.208008,43.04602,26.966309,-6.3573647,-48.644775,-0.21826172
1116,44.743652,-7.845703,77.637695,-53.503906,43.91223,21.47168,27.680874,-16.846344,34.69507
1117,43.715332,-7.7338867,81.50879,-44.666992,54.986572,35.79834,43.65639,-4.175537,50.87207
1118,50.195312,-17.98169,82.893555,-48.856445,43.858643,34.430176,-0.15860367,-43.15262,12.968018
1119,51.229248,-7.1237793,82.231445,-50.94922,38.046875,30.115234,-40.376648,-75.762024,-19.943848
1120,53.769775,-2.255127,82.8916,-49.99707,39.393677,24.309082,-21.489002,-61.252502,-5.782715
1121,52.676758,-2.4660645,80.16406,-46.270508,40.778564,28.578125,22.416714,-27.458038,31.324463
1122,40.52124,-15.706055,81.92969,-43.933594,45.051514,29.830566,41.617733,-11.97934,37.357178
1123,38.38379,-18.71582,76.98828,-48.03711,46.512817,26.4292,5.528805,-37.80536,6.6914062
1124,32.153076,-27.404785,67.26758,-74.78613,35.19043,13.20459,-29.563095,-65.61801,-16.965088
1125,34.315674,-19.306152,79.243164,-69.62402,53.546753,17.39795,2.5499916,-44.39084,11.666016
1126,46.03662,-15.125732,83.14551,-60.884766,44.726562,12.001953,13.479046,-37.28067,20.728516
1127,69.51929,2.9047852,87.80957,-37.061523,35.450317,24.797363,-1.8951378,-43.533997,12.762695
1128,57.428223,-10.467041,77.93945,-52.152344,30.282349,24.59375,-32.08075,-65.48239,-13.63501
1129,45.364746,-14.366455,75.67871,-63.416016,45.532104,21.208496,-7.7529945,-52.28415,-2.5654297
1130,39.999023,-14.359619,79.606445,-50.74707,63.049194,23.903809,37.89053,-23.08966,30.353271
1131,37.934082,-21.970215,63.864258,-54.470703,43.858643,13.970703,19.088024,-32.5336,27.148926
1132,40.006348,-25.305908,62.466797,-59.53125,35.595947,18.44043,-14.980549,-49.77945,7.4750977
1133,48.5459,-18.57544,67.98242,-71.11914,26.98938,2.8105469,-44.21089,-69.224335,-20.655273
1134,65.386475,0.13256836,69.6582,-72.12988,17.884521,-13.796875,-43.049072,-88.51401,-31.962646
1135,64.25488,6.6640625,75.0332,-51.179688,27.770874,4.701172,-7.378113,-68.98889,-3.826416
1136,68.43164,-1.3212891,75.5957,-53.36621,30.963501,11.937012,-1.2699089,-56.9411,0.39501953
1137,67.05542,-0.9387207,81.97266,-46.461914,51.041016,34.27246,-2.0315247,-36.33203,15.416016
1138,63.857666,-5.821533,72.541016,-68.92969,49.789917,23.27002,-4.131218,-35.938416,12.439453
1139,40.843994,-16.796143,69.25,-72.25391,55.29004,6.536133,13.765568,-27.239502,25.35083
1140,50.95923,-9.154785,73.86914,-66.66016,34.790283,-19.213379,-15.51804,-70.15332,-10.220459
1141,60.566406,-8.670654,76.99902,-45.753906,27.005615,5.453125,-43.938736,-89.7464,-29.300293
1142,52.799316,-15.719238,65.200195,-56.23242,28.463501,20.344238,-41.513203,-73.74936,-14.700439
1143,51.664307,-15.664551,68.478516,-57.66504,41.52002,26.973145,-6.145977,-40.315887,14.335693
1144,50.918213,-13.994873,75.05371,-57.677734,48.949707,16.079102,20.360592,-31.238098,22.01831
1145,61.208008,-9.303711,79.1582,-52.91504,51.268677,18.04541,9.772099,-42.981415,11.299805
1146,59.480713,-5.988037,70.62598,-58.495117,38.031128,12.944336,-40.749504,-75.464874,-17.61377
1147,56.83252,-17.691895,70.0332,-81.30078,32.225952,-13.754395,-57.616493,-97.58182,-44.403564
1148,50.084717,-23.597412,71.03027,-80.76367,50.37744,-10.608398,0.65185547,-57.215942,-8.950195
1149,41.49121,-28.015625,71.768555,-62.631836,51.383423,6.826172,25.523792,-38.378174,16.851074
1150,39.575195,-36.108887,67.48633,-59.875,49.441162,17.45459,-1.4535599,-49.274414,0.5834961
1151,42.094727,-37.70044,60.487305,-71.09277,37.42212,19.422852,-46.301453,-74.9451,-22.39331
1152,46.986084,-25.801514,65.15137,-74.7666,40.54248,19.517578,-40.03766,-65.80438,-3.574463
1153,62.940674,-5.265381,74.83301,-56.197266,43.544678,13.919922,-4.496174,-47.654846,15.125244
1154,66.87598,-4.955078,75.35449,-44.316406,45.89563,13.533691,14.530415,-38.07367,17.386475
1155,63.292725,-13.465576,73.48242,-49.536133,48.345825,18.393066,-10.47398,-57.328705,-6.0930176
1156,42.413574,-31.050049,58.591797,-75.33496,41.57715,2.774414,-27.442158,-73.76007,-24.415283
1157,44.73706,-23.232178,65.118164,-69.09766,43.770508,11.285156,-12.627769,-59.990906,-4.0856934
1158,48.48828,-19.92627,66.68848,-55.17871,44.05298,13.885254,0.2695427,-45.135986,14.500488
1159,50.956543,-25.884521,61.51367,-54.276367,44.171875,17.072266,-5.7750893,-45.688538,7.9470215
1160,60.435547,-20.214111,67.09473,-61.25,37.935547,-2.1689453,-42.749123,-72.186005,-28.709717
1161,64.47046,-6.1850586,66.61328,-67.458984,32.003174,-10.514648,-43.953487,-82.38324,-33.624023
1162,53.30298,-14.6623535,58.966797,-66.819336,36.73047,-14.464844,-9.717178,-70.52182,-13.845703
1163,50.853027,-22.417236,62.68164,-57.03125,47.163208,-0.41455078,5.327778,-55.73752,1.767334
1164,42.39453,-28.158936,57.86133,-48.254883,40.571167,23.463867,-21.410385,-53.20987,1.953125
1165,41.216064,-31.012207,60.97754,-62.739258,48.311523,25.247559,-29.576073,-54.485107,0.44580078
1166,58.83618,-11.641602,64.51465,-60.23242,45.608276,9.345703,-21.632568,-55.315186,0.14916992
1167,64.45752,-6.126953,74.02344,-51.97754,37.894043,-9.852051,-19.460209,-72.10425,-13.895996
1168,68.42285,-2.2385254,68.93652,-38.874023,26.396484,-7.375,-39.395706,-84.34946,-27.879883
1169,58.04077,-19.280273,59.42383,-57.63672,24.663574,-5.925293,-50.66642,-87.21524,-34.91919
1170,46.87671,-25.59375,61.69922,-66.625,49.075684,4.451172,-24.621696,-57.729797,-8.039307
1171,41.617188,-25.685791,61.60742,-63.96875,52.52295,3.4282227,7.9577446,-42.759094,13.988281
1172,43.904785,-26.417236,58.895508,-54.817383,48.333862,4.7124023,6.513569,-47.443085,7.109619
1173,45.019287,-30.451416,53.365234,-63.66504,31.33081,-10.333984,-43.736584,-84.84903,-38.718506
1174,84.11963,8.380615,71.74609,-38.115234,41.993042,6.769043,-62.402195,-89.88077,-37.970215
1175,73.021484,8.77417,74.48926,-44.398438,45.460083,-2.262207,-34.171265,-74.75931,-22.241455
1176,54.77002,-7.039551,64.41699,-45.621094,38.01831,1.590332,5.645794,-47.571167,11.525879
1177,55.45166,-10.2734375,64.31152,-41.910156,46.481323,10.254395,9.079815,-42.66266,13.612549
1178,52.259277,-20.754883,59.698242,-48.878906,39.67395,9.396973,-32.8246,-67.80939,-17.908203
1179,41.96411,-23.746826,57.785156,-58.82617,43.010376,2.5688477,-48.333042,-78.750336,-30.654785
1180,51.174805,-16.912354,62.44336,-64.11719,45.53784,-8.49707,-28.086693,-73.75693,-23.500732
1181,65.646484,-0.73291016,68.63379,-46.512695,42.962524,-13.692871,-17.591053,-67.52109,-19.28125
1182,71.473145,-4.166748,70.81348,-40.322266,41.066772,1.6044922,-32.307648,-75.754456,-21.939209
1183,53.851074,-20.818848,54.1875,-68.08008,28.700562,-5.6606445,-56.29801,-89.37961,-40.25659
1184,37.679443,-28.70288,56.842773,-69.20703,47.059937,2.2558594,-18.497566,-56.30945,-9.840576
1185,30.264404,-40.31079,61.39453,-62.78125,58.204224,5.190918,15.659176,-33.38214,12.723145
1186,36.70874,-40.913574,66.83203,-50.89746,59.897827,7.3686523,2.8019905,-44.937317,-3.6533203
1187,35.947266,-45.047607,64.728516,-52.9834,51.895996,9.201172,-41.08635,-72.68576,-33.978516
1188,46.57495,-30.464355,61.631836,-65.12012,40.149536,-10.112305,-69.31405,-95.10324,-54.04077
1189,61.777588,-8.867676,74.31445,-55.84668,55.298096,-3.9335938,-21.684841,-64.644196,-17.864258
1190,69.02344,-2.4528809,84.7832,-38.76758,73.51782,12.839355,29.619663,-23.815582,25.314697
1191,65.471924,-10.890381,70.04883,-37.40918,61.841675,25.034668,13.014805,-30.882416,18.13916
1192,54.74536,-22.229004,56.88965,-45.59668,56.666138,31.176758,-13.064735,-44.796112,-6.7956543
1193,46.3208,-30.32129,57.822266,-50.98047,56.816406,23.125,-19.68251,-50.583405,-6.0578613
1194,52.27832,-14.720215,65.20117,-43.112305,59.86255,14.778809,-10.380222,-50.78961,-0.2607422
1195,55.21704,-19.42334,67.97754,-47.63672,51.707397,-14.075195,-22.083832,-72.515564,-28.60083
1196,53.143555,-31.146973,63.10254,-51.137695,45.85034,-12.952637,-39.113914,-84.845245,-46.155273
1197,57.154053,-20.09497,69.46973,-52.10742,57.16797,0.7421875,-36.846153,-69.13837,-32.288574
1198,62.80493,-13.188477,70.34473,-47.523438,51.562134,11.11084,-6.802101,-44.15982,3.1142578
1199,50.27246,-28.20752,66.90039,-46.637695,50.702393,8.169922,3.8814735,-39.647552,8.30542
1200,59.36133,-21.191895,70.55078,-31.954102,57.041504,14.588867,-19.545143,-62.270844,-19.188965
1201,56.548584,-27.7417,64.53223,-38.21582,53.983765,7.730957,-46.565422,-89.15106,-49.093506
1202,49.91382,-25.553955,64.48926,-48.307617,59.614624,11.911133,-25.837162,-62.08374,-23.196045
1203,56.317383,-17.608398,59.60254,-47.092773,47.40454,-6.0341797,-8.849773,-49.999084,-3.9367676
1204,59.674072,-17.804443,58.564453,-42.56543,27.084106,-14.357422,-21.595009,-57.89212,-13.225342
1205,63.355225,-15.49585,58.79004,-39.578125,24.871948,-3.8354492,-53.95149,-81.06848,-39.310303
1206,53.200195,-22.513916,53.492188,-51.24707,34.49182,3.3305664,-61.56086,-97.3862,-55.512695
1207,48.389404,-24.17334,60.30078,-56.28125,54.042236,1.0532227,-22.75615,-69.36136,-33.479248
1208,46.13965,-26.594727,63.85742,-43.635742,67.99756,11.23584,23.707645,-28.97931,8.19043
1209,46.43457,-23.057373,56.493164,-35.853516,56.711914,11.031738,-0.07919693,-40.05078,2.866211
1210,55.49121,-18.91333,51.914062,-44.36133,33.0719,-4.3276367,-61.22807,-86.810394,-43.216797
1211,60.791748,-23.658691,50.24707,-63.842773,16.966919,-27.676758,-88.05597,-113.561005,-71.69214
1212,55.72754,-16.294922,53.23828,-58.72168,31.570679,-26.558105,-38.47057,-84.21216,-42.045654
1213,50.223633,-28.572998,57.59961,-53.520508,39.040405,-18.845703,-1.3583183,-59.97525,-25.114502
1214,52.162354,-28.304932,51.749023,-36.270508,47.814087,9.303711,-14.829205,-53.12622,-17.87378
1215,59.201904,-22.08789,50.472656,-50.33008,40.785645,4.416992,-48.714012,-72.08539,-34.86743
1216,67.249756,-9.229248,65.38574,-42.009766,56.119873,8.687012,-30.517784,-55.99124,-15.190186
1217,51.36963,-19.199707,54.29004,-49.668945,36.029907,-23.993652,-38.876434,-81.36975,-35.384766
1218,45.73413,-30.478516,53.322266,-47.6416,25.439331,-31.964844,-54.875053,-104.012115,-61.53662
1219,43.144775,-38.106934,49.54297,-53.248047,26.583496,-26.518555,-67.78998,-111.53171,-76.681885
1220,47.146973,-31.82251,48.66504,-53.708984,37.394897,-11.350586,-48.14927,-80.6608,-42.510986
1221,49.58667,-19.541504,52.466797,-43.786133,50.954346,0.110839844,-2.3116264,-36.39209,3.9394531
1222,41.73706,-29.771973,53.26953,-47.22754,56.977173,-3.4804688,10.661556,-28.315277,10.976074
1223,59.6167,-20.420654,55.60742,-37.25586,40.685547,-4.4804688,-37.284058,-74.37067,-29.33081
1224,57.732178,-23.54126,53.692383,-45.378906,35.96277,-10.65918,-74.69365,-109.06683,-72.3418
1225,54.62671,-24.266113,46.58008,-58.064453,35.137207,-21.965332,-66.8645,-109.98682,-72.53638
1226,40.493164,-33.153076,48.35254,-56.703125,33.345947,-26.824219,-31.785833,-84.19226,-40.86133
1227,54.374756,-23.528564,54.476562,-35.243164,43.47534,-4.7563477,2.9662285,-44.745026,-2.6274414
1228,51.08252,-31.668701,52.921875,-35.756836,49.91931,2.4711914,-12.300243,-36.452087,-5.2475586
1229,51.43457,-23.815918,56.31543,-45.126953,47.33899,-8.429199,-40.482346,-60.684814,-33.477295
1230,49.58545,-19.15503,59.030273,-45.28711,47.630615,-21.98877,-48.31755,-83.37207,-49.774414
1231,44.920654,-27.642334,58.648438,-34.8125,43.84192,-24.41211,-36.975204,-94.522064,-54.35327
1232,44.5271,-30.302734,46.908203,-39.189453,36.11194,-18.625,-43.061424,-93.94943,-55.357178
1233,41.08423,-38.232666,50.408203,-48.286133,43.55371,-9.5234375,-49.34254,-83.479004,-48.02002
1234,34.949707,-39.117188,51.006836,-57.492188,50.317383,-6.0200195,-23.88617,-53.275696,-20.07959
1235,56.365234,-12.997803,68.21777,-32.08496,61.409668,-8.074219,7.643917,-31.344177,3.043457
1236,52.66577,-20.966797,62.609375,-36.964844,44.4718,-31.734863,-21.368755,-69.844666,-36.183105
1237,57.20288,-22.19336,55.393555,-29.110352,34.14734,-15.825684,-66.35661,-97.35596,-60.61914
1238,43.041504,-31.525146,40.088867,-40.82617,24.54663,-8.282715,-84.30408,-117.4642,-77.69141
1239,36.59424,-35.00049,48.625977,-49.257812,47.315063,-10.270996,-36.66596,-85.81552,-50.49243
1240,42.166504,-26.149414,55.825195,-40.856445,56.628784,-3.3164062,10.627819,-44.623077,-2.9814453
1241,47.96704,-23.74414,59.146484,-19.5,59.327026,10.931152,7.660267,-32.40634,6.184082
1242,55.12329,-22.498291,55.18457,-30.911133,45.338135,0.025878906,-40.16638,-59.95279,-28.160156
1243,64.396484,-13.72876,58.63379,-48.561523,38.92041,-24.416016,-65.61883,-87.84659,-58.097656
1244,47.581787,-20.02417,53.348633,-40.95703,40.120728,-26.601074,-43.030693,-83.263336,-53.390625
1245,32.802734,-30.15332,51.14453,-31.548828,44.785522,-17.70996,-18.573704,-74.24512,-41.174805
1246,26.445557,-50.72534,44.1875,-40.657227,45.595825,-7.5634766,-32.061462,-76.57538,-40.043213
1247,19.215332,-59.532227,44.510742,-50.41211,44.224243,0.037597656,-46.374706,-72.729706,-36.173584
1248,28.205322,-45.892822,50.961914,-48.680664,43.770996,-7.1904297,-37.08657,-59.19925,-20.183594
1249,49.14502,-19.425781,55.646484,-32.280273,34.777954,-19.57959,-24.667213,-58.294556,-19.448486
1250,60.66284,-14.655273,57.04785,-29.493164,30.911865,-37.543457,-46.687714,-89.70773,-59.44702
1251,55.150635,-23.89502,52.22168,-33.448242,26.491333,-34.84082,-68.539665,-106.11719,-85.11255
1252,41.585205,-33.63159,43.65332,-40.088867,37.982056,-20.185059,-56.352184,-95.88681,-68.02515
1253,26.24414,-42.3667,45.71875,-37.59961,55.165405,-3.4038086,-5.338352,-54.502197,-19.5708
1254,30.980713,-33.258057,49.601562,-24.848633,63.372437,9.481934,23.089108,-25.755585,11.79248
1255,37.688477,-37.721924,34.101562,-25.081055,37.20996,4.5820312,-24.983799,-55.69629,-18.455566
1256,64.20581,-10.862305,42.398438,-25.992188,24.955933,-10.400879,-73.66572,-91.55582,-60.64258
1257,58.97119,-15.380615,44.470703,-37.969727,25.315308,-36.009277,-70.341385,-98.916565,-73.07764
1258,54.827393,-16.290771,52.43457,-33.378906,36.795166,-36.45459,-24.859592,-78.352936,-47.616943
1259,52.56421,-23.038086,55.25293,-21.689453,41.99951,-13.714355,-10.455334,-58.593567,-22.021729
1260,47.368164,-33.441406,48.651367,-29.735352,41.635864,-0.2446289,-29.204643,-64.284485,-32.046387
1261,51.32202,-29.546875,49.78711,-38.7041,52.14734,-2.4824219,-32.695724,-63.263336,-34.034912
1262,46.788086,-26.319092,49.20508,-38.765625,47.79834,-14.025879,-20.248558,-59.126587,-26.709229
1263,59.77881,-17.062012,62.408203,-26.098633,48.080566,-23.566406,-18.972397,-66.85629,-28.26294
1264,55.924805,-21.067383,55.501953,-27.240234,34.18225,-34.253418,-53.612495,-97.35483,-63.45996
1265,54.12915,-23.998291,43.132812,-36.942383,22.745972,-40.266113,-85.25372,-121.75018,-91.1001
1266,42.20337,-35.190186,38.033203,-55.71875,25.502075,-36.384277,-67.426186,-105.237366,-68.58496
1267,51.51538,-21.833984,52.881836,-34.253906,52.01062,-13.955566,-3.6004257,-50.96335,-12.719971
1268,57.20459,-21.270508,63.375,-26.4375,56.985107,-10.647461,11.232494,-37.36258,-3.3562012
1269,50.438232,-42.463135,51.91211,-46.069336,40.21045,-28.925293,-38.039185,-77.31961,-52.167236
1270,53.24292,-35.5542,60.56543,-29.319336,42.04126,-16.36377,-68.44164,-102.124695,-70.26001
1271,37.94458,-37.028076,44.00293,-38.129883,32.026733,-33.816406,-64.667755,-108.81177,-71.32788
1272,28.99292,-45.787354,43.77539,-35.67871,39.776733,-24.846191,-26.280483,-77.17172,-34.838867
1273,27.730713,-47.1438,46.799805,-21.536133,43.507935,-9.54834,-18.18414,-69.943665,-26.369873
1274,35.76123,-49.878418,50.88379,-20.085938,49.49524,3.5615234,-28.982876,-63.079742,-30.156982
1275,38.641357,-43.950928,50.990234,-37.953125,43.800415,-20.967285,-39.74376,-75.6456,-50.866943
